File: boron_diamond/ekimov_2004/tc2.4/xrd/curve_1_fit.dat
37.5,21.5856
37.52,22.3953
37.54,23.2506
37.56,24.1547
37.58,25.1115
37.6,26.125
37.62,27.1997
37.64,28.3404
37.66,29.5526
37.68,30.8421
37.7,32.2155
37.72,33.68
37.74,35.2435
37.76,36.9149
37.78,38.7039
37.8,40.6215
37.82,42.6796
37.84,44.8918
37.86,47.273
37.88,49.84
37.9,52.6117
37.92,55.6091
37.94,58.8558
37.96,62.3782
37.98,66.2063
38,70.3734
38.02,74.9174
38.04,79.8807
38.06,85.3108
38.08,91.2614
38.1,97.7924
38.12,104.971
38.14,112.87
38.16,121.573
38.18,131.167
38.2,141.75
38.22,153.42
38.24,166.281
38.26,180.43
38.28,195.954
38.3,212.915
38.32,231.338
38.34,251.182
38.36,272.316
38.38,294.486
38.4,317.277
38.42,340.088
38.44,362.117
38.46,382.383
38.48,399.785
38.5,413.217
38.52,421.718
38.54,424.63
38.56,421.718
38.58,413.217
38.6,399.785
38.62,382.383
38.64,362.117
38.66,340.088
38.68,317.277
38.7,294.486
38.72,272.316
38.74,251.182
38.76,231.338
38.78,212.915
38.8,195.954
38.82,180.43
38.84,166.281
38.86,153.42
38.88,141.75
38.9,131.167
38.92,121.573
38.94,112.87
38.96,104.971
38.98,97.7924
39,91.2614
39.02,85.3108
39.04,79.8807
39.06,74.9174
39.08,70.3734
39.1,66.2063
39.12,62.3782
39.14,58.8558
39.16,55.6091
39.18,52.6117
39.2,49.84
39.22,47.273
39.24,44.8918
39.26,42.6796
39.28,40.6215
39.3,38.7039
39.32,36.9149
39.34,35.2435
39.36,33.68
39.38,32.2155
39.4,30.8421
39.42,29.5526
39.44,28.3404
39.46,27.1997
39.48,26.125
39.5,25.1115
39.52,24.1547
39.54,23.2506
39.56,22.3953
39.58,21.5856
39.6,20.8183
39.62,20.0905
39.64,19.3997
39.66,18.7433
39.68,18.1193
39.7,17.5254
39.72,16.9599
39.74,16.421
39.76,15.907
39.78,15.4165
39.8,14.948
39.82,14.5004
39.84,14.0723
39.86,13.6627
39.88,13.2706
39.9,12.8949
39.92,12.5348
39.94,12.1894
39.96,11.858
39.98,11.5398
40,11.2341
40.02,10.9403
40.04,10.6578
40.06,10.386
40.08,10.1244
40.1,9.87242
40.12,9.6297
40.14,9.39575
40.16,9.17017
40.18,8.95256
40.2,8.74255
40.22,8.53979
40.24,8.34396
40.26,8.15475
40.28,7.97186
40.3,7.79502
40.32,7.62396
40.34,7.45844
40.36,7.29822
40.38,7.14308
40.4,6.99281
40.42,6.8472
40.44,6.70607
40.46,6.56924
40.48,6.43653
40.5,6.30779
40.52,6.18285
40.54,6.06157
40.56,5.9438
40.58,5.82942
40.6,5.71829
40.62,5.6103
40.64,5.50532
40.66,5.40326
40.68,5.30399
40.7,5.20742
40.72,5.11345
40.74,5.022
40.76,4.93297
40.78,4.84627
40.8,4.76184
40.82,4.67958
40.84,4.59943
40.86,4.52131
40.88,4.44516
40.9,4.37091
40.92,4.29849
40.94,4.22786
40.96,4.15895
40.98,4.0917
41,4.02607
41.02,3.962
41.04,3.89944
41.06,3.83835
41.08,3.77868
41.1,3.72038
41.12,3.66342
41.14,3.60775
41.16,3.55334
41.18,3.50015
41.2,3.44814
41.22,3.39728
41.24,3.34753
41.26,3.29886
41.28,3.25125
41.29,3.22782