File: boron_diamond/ekimov_2004/tc2.4/xrd/curve_total_fit.dat
37.5,143.136
37.52,143.945
37.54,144.801
37.56,145.705
37.58,146.662
37.6,147.675
37.62,148.75
37.64,149.89
37.66,151.103
37.68,152.392
37.7,153.765
37.72,155.23
37.74,156.794
37.76,158.465
37.78,160.254
37.8,162.171
37.82,164.23
37.84,166.442
37.86,168.823
37.88,171.39
37.9,174.162
37.92,177.159
37.94,180.406
37.96,183.928
37.98,187.756
38,191.923
38.02,196.467
38.04,201.431
38.06,206.861
38.08,212.811
38.1,219.342
38.12,226.521
38.14,234.42
38.16,243.123
38.18,252.717
38.2,263.3
38.22,274.97
38.24,287.831
38.26,301.98
38.28,317.504
38.3,334.465
38.32,352.888
38.34,372.732
38.36,393.866
38.38,416.036
38.4,438.827
38.42,461.638
38.44,483.667
38.46,503.933
38.48,521.335
38.5,534.767
38.52,543.268
38.54,546.18
38.56,543.268
38.58,534.767
38.6,521.335
38.62,503.933
38.64,483.667
38.66,461.638
38.68,438.827
38.7,416.036
38.72,393.866
38.74,372.732
38.76,352.888
38.78,334.465
38.8,317.504
38.82,301.98
38.84,287.831
38.86,274.97
38.88,263.3
38.9,252.717
38.92,243.123
38.94,234.42
38.96,226.521
38.98,219.342
39,212.811
39.02,206.861
39.04,201.431
39.06,196.467
39.08,191.923
39.1,187.756
39.12,183.928
39.14,180.406
39.16,177.159
39.18,174.162
39.2,171.39
39.22,168.823
39.24,166.442
39.26,164.23
39.28,162.171
39.3,160.254
39.32,158.465
39.34,156.794
39.36,155.23
39.38,153.765
39.4,152.392
39.42,151.103
39.44,149.89
39.46,148.75
39.48,147.675
39.5,146.662
39.52,145.705
39.54,144.801
39.56,143.946
39.58,143.136
39.6,142.369
39.62,141.642
39.64,140.953
39.66,140.298
39.68,139.677
39.7,139.088
39.72,138.529
39.74,138
39.76,137.502
39.78,137.033
39.8,136.596
39.82,136.193
39.84,135.827
39.86,135.503
39.88,135.226
39.9,135.003
39.92,134.843
39.94,134.756
39.96,134.752
39.98,134.843
40,135.039
40.02,135.352
40.04,135.791
40.06,136.361
40.08,137.066
40.1,137.902
40.12,138.862
40.14,139.931
40.16,141.087
40.18,142.302
40.2,143.54
40.22,144.762
40.24,145.924
40.26,146.982
40.28,147.891
40.3,148.611
40.32,149.107
40.34,149.353
40.36,149.332
40.38,149.038
40.4,148.476
40.42,147.663
40.44,146.625
40.46,145.396
40.48,144.017
40.5,142.53
40.52,140.98
40.54,139.411
40.56,137.861
40.58,136.365
40.6,134.951
40.62,133.64
40.64,132.447
40.66,131.379
40.68,130.437
40.7,129.619
40.72,128.919
40.74,128.325
40.76,127.827
40.78,127.413
40.8,127.07
40.82,126.788
40.84,126.555
40.86,126.362
40.88,126.2
40.9,126.064
40.92,125.947
40.94,125.845
40.96,125.754
40.98,125.671
41,125.595
41.02,125.524
41.04,125.457
41.06,125.393
41.08,125.332
41.1,125.272
41.12,125.215
41.14,125.158
41.16,125.104
41.18,125.05
41.2,124.998
41.22,124.947
41.24,124.898
41.26,124.849
41.28,124.801
41.29,124.778