File: boron_diamond/ekimov_2004/tc2.4/xrd/curve_2_fit.dat
37.5,6.79358e-60
37.52,4.73157e-59
37.54,3.25085e-58
37.56,2.2033e-57
37.58,1.47311e-56
37.6,9.71587e-56
37.62,6.32139e-55
37.64,4.05722e-54
37.66,2.5688e-53
37.68,1.60441e-52
37.7,9.88522e-52
37.72,6.00817e-51
37.74,3.60232e-50
37.76,2.13063e-49
37.78,1.24313e-48
37.8,7.15505e-48
37.82,4.06249e-47
37.84,2.2754e-46
37.86,1.25721e-45
37.88,6.85238e-45
37.9,3.68435e-44
37.92,1.95418e-43
37.94,1.02248e-42
37.96,5.27749e-42
37.98,2.68712e-41
38,1.34968e-40
38.02,6.68742e-40
38.04,3.26868e-39
38.06,1.57605e-38
38.08,7.49641e-38
38.1,3.5174e-37
38.12,1.62807e-36
38.14,7.43381e-36
38.16,3.34838e-35
38.18,1.48779e-34
38.2,6.5213e-34
38.22,2.81975e-33
38.24,1.20274e-32
38.26,5.06081e-32
38.28,2.10064e-31
38.3,8.60138e-31
38.32,3.47432e-30
38.34,1.38438e-29
38.36,5.44161e-29
38.38,2.11e-28
38.4,8.07094e-28
38.42,3.04544e-27
38.44,1.1336e-26
38.46,4.16252e-26
38.48,1.50777e-25
38.5,5.38768e-25
38.52,1.89912e-24
38.54,6.60369e-24
38.56,2.2652e-23
38.58,7.66498e-23
38.6,2.55859e-22
38.62,8.4251e-22
38.64,2.73675e-21
38.66,8.76957e-21
38.68,2.77209e-20
38.7,8.64413e-20
38.72,2.65901e-19
38.74,8.0687e-19
38.76,2.41531e-18
38.78,7.13223e-18
38.8,2.07761e-17
38.82,5.97017e-17
38.84,1.69237e-16
38.86,4.73246e-16
38.88,1.30546e-15
38.9,3.55245e-15
38.92,9.53619e-15
38.94,2.52527e-14
38.96,6.59666e-14
38.98,1.69991e-13
39,4.32129e-13
39.02,1.08364e-12
39.04,2.68066e-12
39.06,6.54158e-12
39.08,1.57474e-11
39.1,3.73956e-11
39.12,8.76024e-11
39.14,2.0244e-10
39.16,4.6149e-10
39.18,1.0378e-09
39.2,2.30223e-09
39.22,5.03813e-09
39.24,1.08761e-08
39.26,2.31614e-08
39.28,4.86563e-08
39.3,1.00832e-07
39.32,2.06131e-07
39.34,4.15693e-07
39.36,8.26966e-07
39.38,1.62288e-06
39.4,3.14174e-06
39.42,5.99984e-06
39.44,1.1303e-05
39.46,2.10055e-05
39.48,3.85084e-05
39.5,6.96409e-05
39.52,0.000124239
39.54,0.000218643
39.56,0.000379576
39.58,0.00065005
39.6,0.00109819
39.62,0.00183019
39.64,0.00300884
39.66,0.00487963
39.68,0.00780655
39.7,0.0123202
39.72,0.0191804
39.74,0.0294567
39.76,0.0446269
39.78,0.066695
39.8,0.0983274
39.82,0.143002
39.84,0.20516
39.86,0.290354
39.88,0.405367
39.9,0.558283
39.92,0.758481
39.94,1.01653
39.96,1.34394
39.98,1.75277
40,2.25505
40.02,2.86201
40.04,3.58319
40.06,4.42542
40.08,5.39168
40.1,6.48006
40.12,7.68277
40.14,8.98549
40.16,10.3669
40.18,11.799
40.2,13.2472
40.22,14.6719
40.24,16.0301
40.26,17.277
40.28,18.369
40.3,19.2659
40.32,19.9332
40.34,20.3446
40.36,20.4837
40.38,20.3446
40.4,19.9332
40.42,19.2659
40.44,18.369
40.46,17.277
40.48,16.0301
40.5,14.6719
40.52,13.2472
40.54,11.799
40.56,10.3669
40.58,8.98549
40.6,7.68277
40.62,6.48006
40.64,5.39168
40.66,4.42542
40.68,3.58319
40.7,2.86201
40.72,2.25505
40.74,1.75277
40.76,1.34394
40.78,1.01653
40.8,0.758481
40.82,0.558283
40.84,0.405367
40.86,0.290354
40.88,0.20516
40.9,0.143002
40.92,0.0983274
40.94,0.066695
40.96,0.0446269
40.98,0.0294567
41,0.0191804
41.02,0.0123202
41.04,0.00780655
41.06,0.00487963
41.08,0.00300884
41.1,0.00183019
41.12,0.00109819
41.14,0.00065005
41.16,0.000379576
41.18,0.000218643
41.2,0.000124239
41.22,6.96409e-05
41.24,3.85084e-05
41.26,2.10055e-05
41.28,1.1303e-05
41.29,8.24909e-06