File: boron_diamond/ekimov_2004/tc2.4/xrd/xrd.csv
37.4126, 142.587
37.5932, 144.653
37.7791, 153.981
37.9494, 157.828
38.1667, 200
38.2901, 279.231
38.3274, 334.367
38.3473, 363.691
38.3708, 419.266
38.4717, 495.179
38.5351, 546.154
38.6052, 507.161
38.6969, 458.287
38.7515, 411.935
38.7957, 364.637
38.8484, 312.339
38.8897, 263.42
38.9568, 215.717
39.0804, 188.69
39.2277, 149.669
39.4045, 137.188
39.5979, 137.845
39.7749, 137.188
39.9601, 136.472
40.1293, 141.106
40.354, 150.28
40.5513, 134.895
40.709, 131.517
40.8939, 117.743
41.0731, 125.626
41.2583, 122.473