File: pb/bose_2007/60nm/xrd/curve_1_fit.dat
35.0,1.07373
35.01,1.08902
35.02,1.10464
35.03,1.12059
35.04,1.1369
35.05,1.15356
35.06,1.17059
35.07,1.188
35.08,1.2058
35.09,1.224
35.1,1.24262
35.11,1.26166
35.12,1.28114
35.13,1.30108
35.14,1.32148
35.15,1.34237
35.16,1.36375
35.17,1.38565
35.18,1.40808
35.19,1.43105
35.2,1.45459
35.21,1.47872
35.22,1.50345
35.23,1.5288
35.24,1.55479
35.25,1.58145
35.26,1.60881
35.27,1.63687
35.28,1.66567
35.29,1.69524
35.3,1.7256
35.31,1.75678
35.32,1.78881
35.33,1.82172
35.34,1.85554
35.35,1.89031
35.36,1.92606
35.37,1.96283
35.38,2.00066
35.39,2.03959
35.4,2.07966
35.41,2.12092
35.42,2.16341
35.43,2.20719
35.44,2.2523
35.45,2.29881
35.46,2.34676
35.47,2.39622
35.48,2.44726
35.49,2.49993
35.5,2.55431
35.51,2.61048
35.52,2.66851
35.53,2.72848
35.54,2.79049
35.55,2.85463
35.56,2.92098
35.57,2.98966
35.58,3.06078
35.59,3.13445
35.6,3.21079
35.61,3.28994
35.62,3.37203
35.63,3.45721
35.64,3.54563
35.65,3.63746
35.66,3.73288
35.67,3.83207
35.68,3.93523
35.69,4.04258
35.7,4.15435
35.71,4.27077
35.72,4.39211
35.73,4.51865
35.74,4.65067
35.75,4.78851
35.76,4.93251
35.77,5.08303
35.78,5.24046
35.79,5.40524
35.8,5.57782
35.81,5.7587
35.82,5.94841
35.83,6.14752
35.84,6.35666
35.85,6.5765
35.86,6.80777
35.87,7.05128
35.88,7.30788
35.89,7.5785
35.9,7.86419
35.91,8.16604
35.92,8.48528
35.93,8.82325
35.94,9.1814
35.95,9.56134
35.96,9.96484
35.97,10.3938
35.98,10.8504
35.99,11.337
36,11.8562
36.01,12.4109
36.02,13.0043
36.03,13.6399
36.04,14.3217
36.05,15.0542
36.06,15.8422
36.07,16.6914
36.08,17.6077
36.09,18.5983
36.1,19.671
36.11,20.8344
36.12,22.0986
36.13,23.4747
36.14,24.9753
36.15,26.6149
36.16,28.4094
36.17,30.3774
36.18,32.5395
36.19,34.919
36.2,37.5424
36.21,40.4392
36.22,43.6424
36.23,47.1885
36.24,51.1175
36.25,55.4723
36.26,60.2978
36.27,65.6395
36.28,71.5399
36.29,78.035
36.3,85.1471
36.31,92.8756
36.32,101.185
36.33,109.99
36.34,119.138
36.35,128.392
36.36,137.424
36.37,145.817
36.38,153.09
36.39,158.744
36.4,162.342
36.41,163.578
36.42,162.342
36.43,158.744
36.44,153.09
36.45,145.817
36.46,137.424
36.47,128.392
36.48,119.138
36.49,109.99
36.5,101.185
36.51,92.8756
36.52,85.1471
36.53,78.035
36.54,71.5399
36.55,65.6395
36.56,60.2978
36.57,55.4723
36.58,51.1175
36.59,47.1885
36.6,43.6424
36.61,40.4392
36.62,37.5424
36.63,34.919
36.64,32.5395
36.65,30.3774
36.66,28.4094
36.67,26.6149
36.68,24.9753
36.69,23.4747
36.7,22.0986
36.71,20.8344
36.72,19.671
36.73,18.5983
36.74,17.6077
36.75,16.6914
36.76,15.8422
36.77,15.0542
36.78,14.3217
36.79,13.6399
36.8,13.0043
36.81,12.4109
36.82,11.8562
36.83,11.337
36.84,10.8504
36.85,10.3938
36.86,9.96484
36.87,9.56134
36.88,9.1814
36.89,8.82325
36.9,8.48528
36.91,8.16604
36.92,7.86419
36.93,7.5785
36.94,7.30788
36.95,7.05128
36.96,6.80777
36.97,6.5765
36.98,6.35666
36.99,6.14752
37,5.94841
37.01,5.7587
37.02,5.57782
37.03,5.40524
37.04,5.24046
37.05,5.08303
37.06,4.93251
37.07,4.78851
37.08,4.65067
37.09,4.51865
37.1,4.39211
37.11,4.27077
37.12,4.15435
37.13,4.04258
37.14,3.93523
37.15,3.83207
37.16,3.73288
37.17,3.63746
37.18,3.54563
37.19,3.45721
37.2,3.37203
37.21,3.28994
37.22,3.21079
37.23,3.13445
37.24,3.06078
37.25,2.98966
37.26,2.92098
37.27,2.85463
37.28,2.79049
37.29,2.72848
37.3,2.66851
37.31,2.61048
37.32,2.55431
37.33,2.49993
37.34,2.44726
37.35,2.39622
37.36,2.34676
37.37,2.29881
37.38,2.2523
37.39,2.20719
37.4,2.16341
37.41,2.12092
37.42,2.07966
37.43,2.03959
37.44,2.00066
37.45,1.96283
37.46,1.92606
37.47,1.89031
37.48,1.85554
37.49,1.82172
37.5,1.78881
37.51,1.75678
37.52,1.7256
37.53,1.69524
37.54,1.66567
37.55,1.63687
37.56,1.60881
37.57,1.58145
37.58,1.55479
37.59,1.5288
37.6,1.50345
37.61,1.47872
37.62,1.45459
37.63,1.43105
37.64,1.40808
37.65,1.38565
37.66,1.36375
37.67,1.34237
37.68,1.32148
37.69,1.30108
37.7,1.28114
37.71,1.26166
37.72,1.24262
37.73,1.224
37.74,1.2058
37.75,1.188
37.76,1.17059
37.77,1.15356
37.78,1.1369
37.79,1.12059
37.8,1.10464
37.81,1.08902
37.82,1.07373
37.83,1.05875
37.84,1.04409
37.85,1.02973
37.86,1.01567
37.87,1.00189
37.88,0.988383
37.89,0.97515
37.9,0.962182
37.91,0.94947
37.92,0.937007
37.93,0.924788
37.94,0.912806
37.95,0.901055
37.96,0.889529
37.97,0.878223
37.98,0.86713
37.99,0.856246
37.999,0.846624