File: pb/bose_2007/60nm/xrd/curve_total_fit.dat
35.0,563.674
35.01,563.689
35.02,563.705
35.03,563.721
35.04,563.737
35.05,563.754
35.06,563.771
35.07,563.788
35.08,563.806
35.09,563.824
35.1,563.843
35.11,563.862
35.12,563.881
35.13,563.901
35.14,563.921
35.15,563.942
35.16,563.964
35.17,563.986
35.18,564.008
35.19,564.031
35.2,564.055
35.21,564.079
35.22,564.103
35.23,564.129
35.24,564.155
35.25,564.181
35.26,564.209
35.27,564.237
35.28,564.266
35.29,564.295
35.3,564.326
35.31,564.357
35.32,564.389
35.33,564.422
35.34,564.456
35.35,564.49
35.36,564.526
35.37,564.563
35.38,564.601
35.39,564.64
35.4,564.68
35.41,564.721
35.42,564.763
35.43,564.807
35.44,564.852
35.45,564.899
35.46,564.947
35.47,564.996
35.48,565.047
35.49,565.1
35.5,565.154
35.51,565.21
35.52,565.269
35.53,565.328
35.54,565.39
35.55,565.455
35.56,565.521
35.57,565.59
35.58,565.661
35.59,565.734
35.6,565.811
35.61,565.89
35.62,565.972
35.63,566.057
35.64,566.146
35.65,566.237
35.66,566.333
35.67,566.432
35.68,566.535
35.69,566.643
35.7,566.754
35.71,566.871
35.72,566.992
35.73,567.119
35.74,567.251
35.75,567.389
35.76,567.533
35.77,567.683
35.78,567.84
35.79,568.005
35.8,568.178
35.81,568.359
35.82,568.548
35.83,568.748
35.84,568.957
35.85,569.176
35.86,569.408
35.87,569.651
35.88,569.908
35.89,570.179
35.9,570.464
35.91,570.766
35.92,571.085
35.93,571.423
35.94,571.781
35.95,572.161
35.96,572.565
35.97,572.994
35.98,573.45
35.99,573.937
36,574.456
36.01,575.011
36.02,575.604
36.03,576.24
36.04,576.922
36.05,577.654
36.06,578.442
36.07,579.291
36.08,580.208
36.09,581.198
36.1,582.271
36.11,583.434
36.12,584.699
36.13,586.075
36.14,587.575
36.15,589.215
36.16,591.009
36.17,592.977
36.18,595.139
36.19,597.519
36.2,600.142
36.21,603.039
36.22,606.242
36.23,609.788
36.24,613.717
36.25,618.072
36.26,622.898
36.27,628.239
36.28,634.14
36.29,640.635
36.3,647.747
36.31,655.476
36.32,663.785
36.33,672.59
36.34,681.738
36.35,690.992
36.36,700.024
36.37,708.417
36.38,715.69
36.39,721.344
36.4,724.942
36.41,726.178
36.42,724.942
36.43,721.344
36.44,715.69
36.45,708.417
36.46,700.024
36.47,690.992
36.48,681.738
36.49,672.59
36.5,663.785
36.51,655.476
36.52,647.747
36.53,640.635
36.54,634.14
36.55,628.239
36.56,622.898
36.57,618.072
36.58,613.717
36.59,609.788
36.6,606.242
36.61,603.039
36.62,600.142
36.63,597.519
36.64,595.139
36.65,592.977
36.66,591.009
36.67,589.215
36.68,587.575
36.69,586.075
36.7,584.699
36.71,583.434
36.72,582.271
36.73,581.198
36.74,580.208
36.75,579.291
36.76,578.442
36.77,577.654
36.78,576.922
36.79,576.24
36.8,575.604
36.81,575.011
36.82,574.456
36.83,573.937
36.84,573.45
36.85,572.994
36.86,572.565
36.87,572.161
36.88,571.781
36.89,571.423
36.9,571.085
36.91,570.766
36.92,570.464
36.93,570.179
36.94,569.908
36.95,569.651
36.96,569.408
36.97,569.176
36.98,568.957
36.99,568.748
37,568.548
37.01,568.359
37.02,568.178
37.03,568.005
37.04,567.84
37.05,567.683
37.06,567.533
37.07,567.389
37.08,567.251
37.09,567.119
37.1,566.992
37.11,566.871
37.12,566.754
37.13,566.643
37.14,566.535
37.15,566.432
37.16,566.333
37.17,566.237
37.18,566.146
37.19,566.057
37.2,565.972
37.21,565.89
37.22,565.811
37.23,565.734
37.24,565.661
37.25,565.59
37.26,565.521
37.27,565.455
37.28,565.39
37.29,565.328
37.3,565.269
37.31,565.21
37.32,565.154
37.33,565.1
37.34,565.047
37.35,564.996
37.36,564.947
37.37,564.899
37.38,564.852
37.39,564.807
37.4,564.763
37.41,564.721
37.42,564.68
37.43,564.64
37.44,564.601
37.45,564.563
37.46,564.526
37.47,564.49
37.48,564.456
37.49,564.422
37.5,564.389
37.51,564.357
37.52,564.326
37.53,564.295
37.54,564.266
37.55,564.237
37.56,564.209
37.57,564.181
37.58,564.155
37.59,564.129
37.6,564.103
37.61,564.079
37.62,564.055
37.63,564.031
37.64,564.008
37.65,563.986
37.66,563.964
37.67,563.942
37.68,563.921
37.69,563.901
37.7,563.881
37.71,563.862
37.72,563.843
37.73,563.824
37.74,563.806
37.75,563.788
37.76,563.771
37.77,563.754
37.78,563.737
37.79,563.721
37.8,563.705
37.81,563.689
37.82,563.674
37.83,563.659
37.84,563.644
37.85,563.63
37.86,563.616
37.87,563.602
37.88,563.588
37.89,563.575
37.9,563.562
37.91,563.549
37.92,563.537
37.93,563.525
37.94,563.513
37.95,563.501
37.96,563.49
37.97,563.478
37.98,563.467
37.99,563.456
37.999,563.447