File: pb/bose_2007/60nm/xrd/xrd.csv
35.6508, 564.698
35.8352, 566.587
35.9837, 571.7
36.0888, 581.905
36.1718, 597.806
36.2529, 618.973
36.2709, 639.43
36.304, 656.1
36.3325, 675.765
36.3502, 699.158
36.4102, 726.828
36.4704, 700.293
36.476, 679.365
36.4854, 658.537
36.5131, 643.284
36.5456, 629.001
36.593, 611.544
36.6622, 591.23
36.7691, 575.098
36.9217, 568.659
37.106, 563.984