File: boron_diamond/wang_2006/tc8.3/xrd/curve_2_fit.dat
88.0,0.0
88.04,0.0
88.08,0.0
88.12,0.0
88.16,0.0
88.2,0.0
88.24,0.0
88.28,0.0
88.32,0.0
88.36,0.0
88.4,0.0
88.44,0.0
88.48,0.0
88.52,0.0
88.56,0.0
88.6,0.0
88.64,0.0
88.68,0.0
88.72,0.0
88.76,0.0
88.8,0.0
88.84,0.0
88.88,0.0
88.92,0.0
88.96,0.0
89,0.0
89.04,0.0
89.08,0.0
89.12,0.0
89.16,0.0
89.2,0.0
89.24,0.0
89.28,0.0
89.32,0.0
89.36,0.0
89.4,0.0
89.44,0.0
89.48,0.0
89.52,0.0
89.56,0.0
89.6,0.0
89.64,0.0
89.68,0.0
89.72,0.0
89.76,0.0
89.8,0.0
89.84,0.0
89.88,0.0
89.92,0.0
89.96,0.0
90,0.0
90.04,0.0
90.08,0.0
90.12,0.0
90.16,0.0
90.2,0.0
90.24,0.0
90.28,0.0
90.32,0.0
90.36,0.0
90.4,0.0
90.44,0.0
90.48,0.0
90.52,0.0
90.56,0.0
90.6,0.0
90.64,0.0
90.68,0.0
90.72,0.0
90.76,0.0
90.8,0.0
90.84,0.0
90.88,0.0
90.92,0.0
90.96,0.0
91,0.0
91.04,0.0
91.08,0.0
91.12,0.0
91.16,0.0
91.2,0.0
91.24,0.0
91.28,0.0
91.32,0.0
91.36,0.0
91.4,0.0
91.44,0.0
91.48,0.0
91.52,0.0
91.56,0.0
91.6,0.0
91.64,0.0
91.68,0.0
91.72,0.0
91.76,0.0
91.8,0.0
91.84,0.0
91.88,0.0
91.92,0.0
91.96,0.0
92,0.0
92.04,0.0
92.08,0.0
92.12,0.0
92.16,0.0
92.2,0.0
92.24,0.0
92.28,0.0
92.32,0.0
92.36,0.0
92.4,0.0
92.44,0.0
92.48,0.0
92.52,0.0
92.56,0.0
92.6,0.0
92.64,0.0
92.68,0.0
92.72,0.0
92.76,0.0
92.8,0.0
92.84,0.0
92.88,0.0
92.92,0.0
92.96,0.0
93,0.0
93.04,0.0
93.08,0.0
93.12,0.0
93.16,0.0
93.2,0.0
93.24,0.0
93.28,0.0
93.32,0.0
93.36,0.0
93.4,0.0
93.44,0.0
93.48,0.0
93.52,0.0
93.56,0.0
93.6,0.0
93.64,0.0
93.68,0.0
93.72,0.0
93.76,0.0
93.8,0.0
93.84,0.0
93.88,0.0
93.92,0.0
93.96,0.0
94,0.0
94.04,0.0
94.08,0.0
94.12,0.0
94.16,0.0
94.2,0.0
94.24,0.0
94.28,0.0
94.32,0.0
94.36,0.0
94.4,0.0
94.44,0.0
94.48,0.0
94.52,5.38093e-317
94.56,3.92768e-309
94.6,2.28136e-301
94.64,1.05446e-293
94.68,3.87833e-286
94.72,1.13511e-278
94.76,2.64369e-271
94.8,4.89962e-264
94.84,7.22591e-257
94.88,8.48011e-250
94.92,7.91935e-243
94.96,5.88513e-236
95,3.48018e-229
95.04,1.63767e-222
95.08,6.13238e-216
95.12,1.82731e-209
95.16,4.33283e-203
95.2,8.17545e-197
95.24,1.22752e-190
95.28,1.46665e-184
95.32,1.39445e-178
95.36,1.05501e-172
95.4,6.35173e-167
95.44,3.04302e-161
95.48,1.1601e-155
95.52,3.51938e-150
95.56,8.49601e-145
95.6,1.63209e-139
95.64,2.49488e-134
95.68,3.03483e-129
95.72,2.93765e-124
95.76,2.26278e-119
95.8,1.38696e-114
95.84,6.76496e-110
95.88,2.6257e-105
95.92,8.10967e-101
95.96,1.99315e-96
96,3.89813e-92
96.04,6.06668e-88
96.08,7.5132e-84
96.12,7.40419e-80
96.16,5.80642e-76
96.2,3.62342e-72
96.24,1.79932e-68
96.28,7.1101e-65
96.32,2.23574e-61
96.36,5.59432e-58
96.4,1.11391e-54
96.44,1.76496e-51
96.48,2.22534e-48
96.52,2.23274e-45
96.56,1.78261e-42
96.6,1.13254e-39
96.64,5.72575e-37
96.68,2.3035e-34
96.72,7.37434e-32
96.76,1.87861e-29
96.8,3.80828e-27
96.84,6.14328e-25
96.88,7.88588e-23
96.92,8.05525e-21
96.96,6.54767e-19
97,4.2352e-17
97.04,2.17991e-15
97.08,8.92859e-14
97.12,2.91009e-12
97.16,7.54758e-11
97.2,1.55772e-09
97.24,2.55828e-08
97.28,3.34338e-07
97.32,3.47699e-06
97.36,2.87739e-05
97.4,0.000189485
97.44,0.00099295
97.48,0.00414057
97.52,0.0137395
97.56,0.0362795
97.6,0.0762307
97.64,0.127461
97.68,0.169591
97.72,0.17956
97.76,0.151284
97.8,0.101428
97.84,0.0541126
97.88,0.022973
97.92,0.00776101
97.96,0.00208639
98,0.000446327
98.04,7.59782e-05
98.08,1.02921e-05
98.12,1.10942e-06
98.16,9.51633e-08
98.2,6.49562e-09
98.24,3.52818e-10
98.28,1.52496e-11
98.32,5.24502e-13
98.36,1.43553e-14
98.4,3.1265e-16
98.44,5.41855e-18
98.48,7.47284e-20
98.52,8.20101e-22
98.56,7.16189e-24
98.6,4.977e-26
98.64,2.75223e-28
98.68,1.21111e-30
98.72,4.2409e-33
98.76,1.18172e-35
98.8,2.62027e-38
98.84,4.62337e-41
98.88,6.49157e-44
98.92,7.25303e-47
98.96,6.44864e-50
99,4.56243e-53
99.04,2.56863e-56
99.08,1.15077e-59
99.12,4.10253e-63
99.16,1.16384e-66
99.2,2.62734e-70
99.24,4.71972e-74
99.28,6.74676e-78
99.32,7.67456e-82
99.36,6.94689e-86
99.4,5.00387e-90
99.44,2.86814e-94
99.48,1.3082e-98
99.52,4.74817e-103
99.56,1.37138e-107
99.6,3.15186e-112
99.64,5.76443e-117
99.68,8.38926e-122
99.72,9.7156e-127
99.76,8.95354e-132
99.8,6.56597e-137
99.84,3.83161e-142
99.88,1.77928e-147
99.92,6.57482e-153
99.96,1.93332e-158
99.99,1.18169e-162