File: boron_diamond/wang_2006/tc8.3/xrd/curve_total_fit.dat
88.0,104.437
88.04,104.521
88.08,104.607
88.12,104.697
88.16,104.79
88.2,104.886
88.24,104.986
88.28,105.091
88.32,105.199
88.36,105.312
88.4,105.429
88.44,105.551
88.48,105.678
88.52,105.81
88.56,105.949
88.6,106.093
88.64,106.243
88.68,106.401
88.72,106.565
88.76,106.737
88.8,106.918
88.84,107.106
88.88,107.304
88.92,107.512
88.96,107.73
89,107.959
89.04,108.2
89.08,108.453
89.12,108.721
89.16,109.002
89.2,109.3
89.24,109.614
89.28,109.946
89.32,110.297
89.36,110.67
89.4,111.065
89.44,111.485
89.48,111.931
89.52,112.406
89.56,112.913
89.6,113.453
89.64,114.031
89.68,114.65
89.72,115.314
89.76,116.026
89.8,116.792
89.84,117.618
89.88,118.509
89.92,119.473
89.96,120.518
90,121.652
90.04,122.886
90.08,124.232
90.12,125.704
90.16,127.318
90.2,129.091
90.24,131.045
90.28,133.204
90.32,135.599
90.36,138.262
90.4,141.235
90.44,144.565
90.48,148.309
90.52,152.535
90.56,157.326
90.6,162.78
90.64,169.017
90.68,176.181
90.72,184.45
90.76,194.038
90.8,205.204
90.84,218.263
90.88,233.586
90.92,251.607
90.96,272.808
91,297.688
91.04,326.68
91.08,360
91.12,397.379
91.16,437.676
91.2,478.433
91.24,515.62
91.28,544.004
91.32,558.48
91.36,556.049
91.4,537.234
91.44,505.82
91.48,467.136
91.52,426.17
91.56,386.509
91.6,350.202
91.64,318.098
91.68,290.296
91.72,266.499
91.76,246.242
91.8,229.027
91.84,214.381
91.88,201.89
91.92,191.196
91.96,182.003
92,174.065
92.04,167.177
92.08,161.174
92.12,155.917
92.16,151.294
92.2,147.211
92.24,143.59
92.28,140.366
92.32,137.484
92.36,134.9
92.4,132.575
92.44,130.476
92.48,128.575
92.52,126.849
92.56,125.277
92.6,123.842
92.64,122.529
92.68,121.323
92.72,120.215
92.76,119.195
92.8,118.252
92.84,117.38
92.88,116.571
92.92,115.821
92.96,115.122
93,114.472
93.04,113.865
93.08,113.298
93.12,112.767
93.16,112.269
93.2,111.803
93.24,111.364
93.28,110.951
93.32,110.563
93.36,110.196
93.4,109.85
93.44,109.524
93.48,109.214
93.52,108.922
93.56,108.644
93.6,108.381
93.64,108.131
93.68,107.893
93.72,107.668
93.76,107.453
93.8,107.248
93.84,107.052
93.88,106.866
93.92,106.688
93.96,106.518
94,106.356
94.04,106.2
94.08,106.052
94.12,105.909
94.16,105.773
94.2,105.642
94.24,105.516
94.28,105.395
94.32,105.279
94.36,105.168
94.4,105.061
94.44,104.958
94.48,104.859
94.52,104.763
94.56,104.671
94.6,104.583
94.64,104.497
94.68,104.415
94.72,104.335
94.76,104.258
94.8,104.184
94.84,104.112
94.88,104.043
94.92,103.976
94.96,103.911
95,103.848
95.04,103.787
95.08,103.728
95.12,103.671
95.16,103.616
95.2,103.562
95.24,103.511
95.28,103.46
95.32,103.411
95.36,103.364
95.4,103.318
95.44,103.273
95.48,103.23
95.52,103.187
95.56,103.146
95.6,103.107
95.64,103.068
95.68,103.03
95.72,102.993
95.76,102.958
95.8,102.923
95.84,102.889
95.88,102.856
95.92,102.824
95.96,102.793
96,102.762
96.04,102.732
96.08,102.703
96.12,102.675
96.16,102.648
96.2,102.621
96.24,102.595
96.28,102.569
96.32,102.544
96.36,102.52
96.4,102.496
96.44,102.472
96.48,102.45
96.52,102.427
96.56,102.406
96.6,102.385
96.64,102.364
96.68,102.344
96.72,102.324
96.76,102.304
96.8,102.285
96.84,102.267
96.88,102.249
96.92,102.231
96.96,102.213
97,102.196
97.04,102.18
97.08,102.163
97.12,102.147
97.16,102.132
97.2,102.116
97.24,102.101
97.28,102.087
97.32,102.072
97.36,102.058
97.4,102.044
97.44,102.032
97.48,102.021
97.52,102.018
97.56,102.028
97.6,102.055
97.64,102.094
97.68,102.124
97.72,102.122
97.76,102.082
97.8,102.021
97.84,101.962
97.88,101.92
97.92,101.894
97.96,101.878
98,101.865
98.04,101.855
98.08,101.845
98.12,101.835
98.16,101.825
98.2,101.815
98.24,101.806
98.28,101.797
98.32,101.788
98.36,101.779
98.4,101.77
98.44,101.761
98.48,101.753
98.52,101.745
98.56,101.736
98.6,101.728
98.64,101.72
98.68,101.713
98.72,101.705
98.76,101.697
98.8,101.69
98.84,101.683
98.88,101.675
98.92,101.668
98.96,101.661
99,101.654
99.04,101.648
99.08,101.641
99.12,101.634
99.16,101.628
99.2,101.622
99.24,101.615
99.28,101.609
99.32,101.603
99.36,101.597
99.4,101.591
99.44,101.585
99.48,101.58
99.52,101.574
99.56,101.568
99.6,101.563
99.64,101.558
99.68,101.552
99.72,101.547
99.76,101.542
99.8,101.537
99.84,101.532
99.88,101.527
99.92,101.522
99.96,101.517
99.99,101.513