File: boron_diamond/wang_2006/tc8.3/xrd/curve_1_fit.dat
88.0,3.43742
88.04,3.52075
88.08,3.60715
88.12,3.69675
88.16,3.78973
88.2,3.88625
88.24,3.98649
88.28,4.09065
88.32,4.19893
88.36,4.31156
88.4,4.42876
88.44,4.5508
88.48,4.67793
88.52,4.81044
88.56,4.94864
88.6,5.09286
88.64,5.24346
88.68,5.40081
88.72,5.56531
88.76,5.73742
88.8,5.9176
88.84,6.10637
88.88,6.30427
88.92,6.5119
88.96,6.7299
89,6.95899
89.04,7.1999
89.08,7.45348
89.12,7.72061
89.16,8.00228
89.2,8.29955
89.24,8.61359
89.28,8.94567
89.32,9.2972
89.36,9.66971
89.4,10.0649
89.44,10.4846
89.48,10.9309
89.52,11.4061
89.56,11.9126
89.6,12.4533
89.64,13.0313
89.68,13.6501
89.72,14.3136
89.76,15.026
89.8,15.7923
89.84,16.618
89.88,17.5093
89.92,18.4732
89.96,19.5177
90,20.6519
90.04,21.8862
90.08,23.2324
90.12,24.7043
90.16,26.3176
90.2,28.0907
90.24,30.0446
90.28,32.2044
90.32,34.5989
90.36,37.2623
90.4,40.2351
90.44,43.565
90.48,47.309
90.52,51.5354
90.56,56.3262
90.6,61.7801
90.64,68.0168
90.68,75.1814
90.72,83.4504
90.76,93.038
90.8,104.204
90.84,117.263
90.88,132.586
90.92,150.607
90.96,171.808
91,196.688
91.04,225.68
91.08,259
91.12,296.379
91.16,336.676
91.2,377.433
91.24,414.62
91.28,443.004
91.32,457.48
91.36,455.049
91.4,436.234
91.44,404.82
91.48,366.136
91.52,325.17
91.56,285.509
91.6,249.202
91.64,217.098
91.68,189.296
91.72,165.499
91.76,145.242
91.8,128.027
91.84,113.381
91.88,100.89
91.92,90.1961
91.96,81.0033
92,73.0646
92.04,66.1771
92.08,60.1739
92.12,54.9174
92.16,50.2945
92.2,46.2112
92.24,42.5899
92.28,39.3658
92.32,36.4844
92.36,33.9003
92.4,31.575
92.44,29.4758
92.48,27.5751
92.52,25.8489
92.56,24.2771
92.6,22.842
92.64,21.5285
92.68,20.3235
92.72,19.2155
92.76,18.1945
92.8,17.2518
92.84,16.3796
92.88,15.5712
92.92,14.8205
92.96,14.1224
93,13.4719
93.04,12.8649
93.08,12.2977
93.12,11.7669
93.16,11.2695
93.2,10.8026
93.24,10.364
93.28,9.95143
93.32,9.5628
93.36,9.19636
93.4,8.85044
93.44,8.52357
93.48,8.21437
93.52,7.92159
93.56,7.64411
93.6,7.38089
93.64,7.13095
93.68,6.89344
93.72,6.66755
93.76,6.45253
93.8,6.24769
93.84,6.05242
93.88,5.86612
93.92,5.68826
93.96,5.51833
94,5.35588
94.04,5.20047
94.08,5.0517
94.12,4.90921
94.16,4.77264
94.2,4.64167
94.24,4.516
94.28,4.39535
94.32,4.27946
94.36,4.16807
94.4,4.06097
94.44,3.95793
94.48,3.85875
94.52,3.76325
94.56,3.67123
94.6,3.58255
94.64,3.49703
94.68,3.41453
94.72,3.3349
94.76,3.25803
94.8,3.18377
94.84,3.11202
94.88,3.04266
94.92,2.97559
94.96,2.91071
95,2.84793
95.04,2.78715
95.08,2.72829
95.12,2.67127
95.16,2.61602
95.2,2.56246
95.24,2.51053
95.28,2.46016
95.32,2.41128
95.36,2.36385
95.4,2.3178
95.44,2.27308
95.48,2.22963
95.52,2.18743
95.56,2.1464
95.6,2.10652
95.64,2.06774
95.68,2.03001
95.72,1.99331
95.76,1.9576
95.8,1.92283
95.84,1.88898
95.88,1.85602
95.92,1.82391
95.96,1.79262
96,1.76213
96.04,1.73241
96.08,1.70344
96.12,1.67519
96.16,1.64763
96.2,1.62075
96.24,1.59452
96.28,1.56892
96.32,1.54393
96.36,1.51953
96.4,1.4957
96.44,1.47243
96.48,1.4497
96.52,1.42749
96.56,1.40579
96.6,1.38458
96.64,1.36384
96.68,1.34357
96.72,1.32374
96.76,1.30435
96.8,1.28538
96.84,1.26682
96.88,1.24866
96.92,1.23089
96.96,1.21349
97,1.19646
97.04,1.17979
97.08,1.16346
97.12,1.14747
97.16,1.13181
97.2,1.11646
97.24,1.10142
97.28,1.08669
97.32,1.07225
97.36,1.05809
97.4,1.04421
97.44,1.03061
97.48,1.01726
97.52,1.00418
97.56,0.991344
97.6,0.978754
97.64,0.966401
97.68,0.954282
97.72,0.942388
97.76,0.930716
97.8,0.919258
97.84,0.908011
97.88,0.896969
97.92,0.886127
97.96,0.87548
98,0.865024
98.04,0.854754
98.08,0.844666
98.12,0.834755
98.16,0.825017
98.2,0.815449
98.24,0.806046
98.28,0.796805
98.32,0.787722
98.36,0.778793
98.4,0.770015
98.44,0.761384
98.48,0.752898
98.52,0.744552
98.56,0.736345
98.6,0.728272
98.64,0.720332
98.68,0.71252
98.72,0.704835
98.76,0.697273
98.8,0.689833
98.84,0.682511
98.88,0.675304
98.92,0.668211
98.96,0.66123
99,0.654357
99.04,0.64759
99.08,0.640928
99.12,0.634369
99.16,0.627909
99.2,0.621548
99.24,0.615282
99.28,0.609111
99.32,0.603032
99.36,0.597044
99.4,0.591144
99.44,0.585332
99.48,0.579605
99.52,0.573961
99.56,0.568399
99.6,0.562918
99.64,0.557515
99.68,0.55219
99.72,0.546941
99.76,0.541767
99.8,0.536665
99.84,0.531635
99.88,0.526676
99.92,0.521785
99.96,0.516962
99.99,0.513389