File: boron_diamond/wang_2006/tc8.3/xrd/xrd.csv
88.5233, 93.7108
89.1774, 88.473
89.9096, 102.724
90.8943, 185.048
91.1466, 268.158
91.3344, 574.165
91.8818, 265.532
91.98, 187.25
92.5608, 120.801
93.5655, 99.1909
94.255, 100.365
94.919, 98.9113
95.6689, 97.0771
96.4285, 98.0165
97.3184, 99.622
97.7264, 101.67
98.1782, 101.488
98.9359, 97.7416
99.6098, 99.1746
100.332, 94.5719