File: pb/bose_2007/14nm/xrd/curve_total_fit.dat
35.0,258.268
35.01,258.27
35.02,258.272
35.03,258.275
35.04,258.277
35.05,258.279
35.06,258.281
35.07,258.284
35.08,258.286
35.09,258.289
35.1,258.291
35.11,258.294
35.12,258.296
35.13,258.299
35.14,258.302
35.15,258.305
35.16,258.308
35.17,258.311
35.18,258.314
35.19,258.317
35.2,258.32
35.21,258.323
35.22,258.327
35.23,258.33
35.24,258.334
35.25,258.337
35.26,258.341
35.27,258.345
35.28,258.349
35.29,258.353
35.3,258.357
35.31,258.362
35.32,258.366
35.33,258.371
35.34,258.375
35.35,258.38
35.36,258.385
35.37,258.39
35.38,258.396
35.39,258.401
35.4,258.407
35.41,258.413
35.42,258.419
35.43,258.425
35.44,258.431
35.45,258.438
35.46,258.445
35.47,258.452
35.48,258.459
35.49,258.466
35.5,258.474
35.51,258.482
35.52,258.491
35.53,258.499
35.54,258.508
35.55,258.517
35.56,258.527
35.57,258.537
35.58,258.547
35.59,258.558
35.6,258.569
35.61,258.581
35.62,258.593
35.63,258.606
35.64,258.619
35.65,258.632
35.66,258.647
35.67,258.661
35.68,258.677
35.69,258.693
35.7,258.71
35.71,258.727
35.72,258.746
35.73,258.765
35.74,258.785
35.75,258.806
35.76,258.828
35.77,258.851
35.78,258.876
35.79,258.901
35.8,258.928
35.81,258.956
35.82,258.986
35.83,259.017
35.84,259.05
35.85,259.085
35.86,259.122
35.87,259.161
35.88,259.203
35.89,259.246
35.9,259.293
35.91,259.342
35.92,259.395
35.93,259.451
35.94,259.51
35.95,259.574
35.96,259.641
35.97,259.714
35.98,259.791
35.99,259.875
36,259.964
36.01,260.06
36.02,260.164
36.03,260.275
36.04,260.396
36.05,260.526
36.06,260.667
36.07,260.82
36.08,260.986
36.09,261.167
36.1,261.364
36.11,261.579
36.12,261.814
36.13,262.07
36.14,262.352
36.15,262.66
36.16,262.999
36.17,263.37
36.18,263.777
36.19,264.224
36.2,264.713
36.21,265.247
36.22,265.829
36.23,266.46
36.24,267.139
36.25,267.863
36.26,268.627
36.27,269.419
36.28,270.224
36.29,271.022
36.3,271.783
36.31,272.477
36.32,273.067
36.33,273.519
36.34,273.803
36.35,273.9
36.36,273.803
36.37,273.519
36.38,273.067
36.39,272.477
36.4,271.783
36.41,271.022
36.42,270.224
36.43,269.419
36.44,268.627
36.45,267.863
36.46,267.139
36.47,266.46
36.48,265.829
36.49,265.247
36.5,264.713
36.51,264.224
36.52,263.777
36.53,263.37
36.54,262.999
36.55,262.66
36.56,262.352
36.57,262.07
36.58,261.814
36.59,261.579
36.6,261.364
36.61,261.167
36.62,260.986
36.63,260.82
36.64,260.667
36.65,260.526
36.66,260.396
36.67,260.275
36.68,260.164
36.69,260.06
36.7,259.964
36.71,259.875
36.72,259.791
36.73,259.714
36.74,259.641
36.75,259.574
36.76,259.51
36.77,259.451
36.78,259.395
36.79,259.342
36.8,259.293
36.81,259.246
36.82,259.203
36.83,259.161
36.84,259.122
36.85,259.085
36.86,259.05
36.87,259.017
36.88,258.986
36.89,258.956
36.9,258.928
36.91,258.901
36.92,258.876
36.93,258.851
36.94,258.828
36.95,258.806
36.96,258.785
36.97,258.765
36.98,258.746
36.99,258.727
37,258.71
37.01,258.693
37.02,258.677
37.03,258.661
37.04,258.647
37.05,258.632
37.06,258.619
37.07,258.606
37.08,258.593
37.09,258.581
37.1,258.569
37.11,258.558
37.12,258.547
37.13,258.537
37.14,258.527
37.15,258.517
37.16,258.508
37.17,258.499
37.18,258.491
37.19,258.482
37.2,258.474
37.21,258.466
37.22,258.459
37.23,258.452
37.24,258.445
37.25,258.438
37.26,258.431
37.27,258.425
37.28,258.419
37.29,258.413
37.3,258.407
37.31,258.401
37.32,258.396
37.33,258.39
37.34,258.385
37.35,258.38
37.36,258.375
37.37,258.371
37.38,258.366
37.39,258.362
37.4,258.357
37.41,258.353
37.42,258.349
37.43,258.345
37.44,258.341
37.45,258.337
37.46,258.334
37.47,258.33
37.48,258.327
37.49,258.323
37.5,258.32
37.51,258.317
37.52,258.314
37.53,258.311
37.54,258.308
37.55,258.305
37.56,258.302
37.57,258.299
37.58,258.296
37.59,258.294
37.6,258.291
37.61,258.289
37.62,258.286
37.63,258.284
37.64,258.281
37.65,258.279
37.66,258.277
37.67,258.275
37.68,258.272
37.69,258.27
37.7,258.268
37.71,258.266
37.72,258.264
37.73,258.262
37.74,258.26
37.75,258.259
37.76,258.257
37.77,258.255
37.78,258.253
37.79,258.252
37.8,258.25
37.81,258.248
37.82,258.247
37.83,258.245
37.84,258.244
37.85,258.242
37.86,258.241
37.87,258.239
37.88,258.238
37.89,258.236
37.9,258.235
37.91,258.234
37.92,258.232
37.93,258.231
37.94,258.23
37.95,258.229
37.96,258.227
37.97,258.226
37.98,258.225
37.99,258.224
37.999,258.223