File: pb/bose_2007/14nm/xrd/curve_1_fit.dat
35.0,0.138279
35.01,0.140332
35.02,0.142431
35.03,0.144577
35.04,0.146772
35.05,0.149018
35.06,0.151315
35.07,0.153665
35.08,0.156071
35.09,0.158533
35.1,0.161053
35.11,0.163634
35.12,0.166278
35.13,0.168986
35.14,0.17176
35.15,0.174602
35.16,0.177516
35.17,0.180503
35.18,0.183566
35.19,0.186707
35.2,0.189929
35.21,0.193234
35.22,0.196627
35.23,0.200109
35.24,0.203684
35.25,0.207355
35.26,0.211126
35.27,0.215
35.28,0.218982
35.29,0.223074
35.3,0.227282
35.31,0.231609
35.32,0.236061
35.33,0.240641
35.34,0.245355
35.35,0.250209
35.36,0.255207
35.37,0.260355
35.38,0.26566
35.39,0.271128
35.4,0.276765
35.41,0.282579
35.42,0.288577
35.43,0.294766
35.44,0.301156
35.45,0.307754
35.46,0.31457
35.47,0.321613
35.48,0.328894
35.49,0.336423
35.5,0.344212
35.51,0.352272
35.52,0.360616
35.53,0.369258
35.54,0.378212
35.55,0.387493
35.56,0.397116
35.57,0.407099
35.58,0.41746
35.59,0.428218
35.6,0.439393
35.61,0.451007
35.62,0.463083
35.63,0.475645
35.64,0.488719
35.65,0.502335
35.66,0.51652
35.67,0.531308
35.68,0.546733
35.69,0.56283
35.7,0.57964
35.71,0.597204
35.72,0.615567
35.73,0.634778
35.74,0.65489
35.75,0.675958
35.76,0.698043
35.77,0.721211
35.78,0.745532
35.79,0.771082
35.8,0.797945
35.81,0.826209
35.82,0.855973
35.83,0.887341
35.84,0.920429
35.85,0.955362
35.86,0.992276
35.87,1.03132
35.88,1.07266
35.89,1.11646
35.9,1.16293
35.91,1.21229
35.92,1.26475
35.93,1.32059
35.94,1.38009
35.95,1.44356
35.96,1.51135
35.97,1.58385
35.98,1.66148
35.99,1.74471
36,1.83408
36.01,1.93015
36.02,2.03359
36.03,2.14512
36.04,2.26554
36.05,2.39577
36.06,2.5368
36.07,2.68978
36.08,2.85597
36.09,3.03676
36.1,3.23375
36.11,3.44869
36.12,3.68352
36.13,3.94043
36.14,4.22179
36.15,4.53021
36.16,4.86854
36.17,5.23978
36.18,5.64713
36.19,6.09379
36.2,6.58292
36.21,7.11734
36.22,7.69929
36.23,8.32993
36.24,9.00881
36.25,9.73306
36.26,10.4965
36.27,11.2889
36.28,12.0944
36.29,12.8916
36.3,13.6531
36.31,14.3465
36.32,14.9365
36.33,15.3885
36.34,15.6731
36.35,15.7704
36.36,15.6731
36.37,15.3885
36.38,14.9365
36.39,14.3465
36.4,13.6531
36.41,12.8916
36.42,12.0944
36.43,11.2889
36.44,10.4965
36.45,9.73306
36.46,9.00881
36.47,8.32993
36.48,7.69929
36.49,7.11734
36.5,6.58292
36.51,6.09379
36.52,5.64713
36.53,5.23978
36.54,4.86854
36.55,4.53021
36.56,4.22179
36.57,3.94043
36.58,3.68352
36.59,3.44869
36.6,3.23375
36.61,3.03676
36.62,2.85597
36.63,2.68978
36.64,2.5368
36.65,2.39577
36.66,2.26554
36.67,2.14512
36.68,2.03359
36.69,1.93015
36.7,1.83408
36.71,1.74471
36.72,1.66148
36.73,1.58385
36.74,1.51135
36.75,1.44356
36.76,1.38009
36.77,1.32059
36.78,1.26475
36.79,1.21229
36.8,1.16293
36.81,1.11646
36.82,1.07266
36.83,1.03132
36.84,0.992276
36.85,0.955362
36.86,0.920429
36.87,0.887341
36.88,0.855973
36.89,0.826209
36.9,0.797945
36.91,0.771082
36.92,0.745532
36.93,0.721211
36.94,0.698043
36.95,0.675958
36.96,0.65489
36.97,0.634778
36.98,0.615567
36.99,0.597204
37,0.57964
37.01,0.56283
37.02,0.546733
37.03,0.531308
37.04,0.51652
37.05,0.502335
37.06,0.488719
37.07,0.475645
37.08,0.463083
37.09,0.451007
37.1,0.439393
37.11,0.428218
37.12,0.41746
37.13,0.407099
37.14,0.397116
37.15,0.387493
37.16,0.378212
37.17,0.369258
37.18,0.360616
37.19,0.352272
37.2,0.344212
37.21,0.336423
37.22,0.328894
37.23,0.321613
37.24,0.31457
37.25,0.307754
37.26,0.301156
37.27,0.294766
37.28,0.288577
37.29,0.282579
37.3,0.276765
37.31,0.271128
37.32,0.26566
37.33,0.260355
37.34,0.255207
37.35,0.250209
37.36,0.245355
37.37,0.240641
37.38,0.236061
37.39,0.231609
37.4,0.227282
37.41,0.223074
37.42,0.218982
37.43,0.215
37.44,0.211126
37.45,0.207355
37.46,0.203684
37.47,0.200109
37.48,0.196627
37.49,0.193234
37.5,0.189929
37.51,0.186707
37.52,0.183566
37.53,0.180503
37.54,0.177516
37.55,0.174602
37.56,0.17176
37.57,0.168986
37.58,0.166278
37.59,0.163634
37.6,0.161053
37.61,0.158533
37.62,0.156071
37.63,0.153665
37.64,0.151315
37.65,0.149018
37.66,0.146772
37.67,0.144577
37.68,0.142431
37.69,0.140332
37.7,0.138279
37.71,0.13627
37.72,0.134305
37.73,0.132382
37.74,0.1305
37.75,0.128657
37.76,0.126853
37.77,0.125087
37.78,0.123357
37.79,0.121663
37.8,0.120004
37.81,0.118378
37.82,0.116785
37.83,0.115223
37.84,0.113693
37.85,0.112193
37.86,0.110722
37.87,0.10928
37.88,0.107866
37.89,0.106479
37.9,0.105119
37.91,0.103784
37.92,0.102475
37.93,0.10119
37.94,0.0999293
37.95,0.0986919
37.96,0.0974773
37.97,0.0962849
37.98,0.0951142
37.99,0.0939647
37.999,0.0929479