File: mgb2/chen_2008/mg_0.99/xrd/curve_total_fit.dat
24.0,0.403757
24.01,0.403762
24.02,0.403767
24.03,0.403773
24.04,0.403778
24.05,0.403784
24.06,0.40379
24.07,0.403796
24.08,0.403803
24.09,0.403809
24.1,0.403816
24.11,0.403822
24.12,0.403829
24.13,0.403837
24.14,0.403844
24.15,0.403852
24.16,0.40386
24.17,0.403868
24.18,0.403876
24.19,0.403885
24.2,0.403894
24.21,0.403903
24.22,0.403912
24.23,0.403922
24.24,0.403932
24.25,0.403943
24.26,0.403953
24.27,0.403964
24.28,0.403976
24.29,0.403988
24.3,0.404
24.31,0.404013
24.32,0.404026
24.33,0.40404
24.34,0.404054
24.35,0.404069
24.36,0.404084
24.37,0.4041
24.38,0.404116
24.39,0.404133
24.4,0.404151
24.41,0.404169
24.42,0.404189
24.43,0.404209
24.44,0.404229
24.45,0.404251
24.46,0.404273
24.47,0.404297
24.48,0.404321
24.49,0.404347
24.5,0.404374
24.51,0.404402
24.52,0.404431
24.53,0.404462
24.54,0.404494
24.55,0.404527
24.56,0.404562
24.57,0.404599
24.58,0.404638
24.59,0.404679
24.6,0.404722
24.61,0.404767
24.62,0.404814
24.63,0.404865
24.64,0.404917
24.65,0.404973
24.66,0.405032
24.67,0.405095
24.68,0.405161
24.69,0.405231
24.7,0.405306
24.71,0.405385
24.72,0.405469
24.73,0.405558
24.74,0.405654
24.75,0.405755
24.76,0.405864
24.77,0.405981
24.78,0.406105
24.79,0.406239
24.8,0.406382
24.81,0.406536
24.82,0.406702
24.83,0.406881
24.84,0.407074
24.85,0.407283
24.86,0.407509
24.87,0.407754
24.88,0.40802
24.89,0.408309
24.9,0.408624
24.91,0.408966
24.92,0.40934
24.93,0.409747
24.94,0.410192
24.95,0.410678
24.96,0.411209
24.97,0.411789
24.98,0.412421
24.99,0.413109
25,0.413856
25.01,0.414664
25.02,0.415534
25.03,0.416463
25.04,0.417446
25.05,0.418474
25.06,0.419532
25.07,0.420599
25.08,0.421647
25.09,0.422642
25.1,0.423544
25.11,0.424311
25.12,0.424901
25.13,0.42528
25.14,0.425423
25.15,0.425321
25.16,0.424981
25.17,0.424424
25.18,0.423684
25.19,0.422802
25.2,0.42182
25.21,0.420778
25.22,0.419712
25.23,0.418651
25.24,0.417617
25.25,0.416625
25.26,0.415687
25.27,0.414807
25.28,0.413988
25.29,0.413231
25.3,0.412533
25.31,0.411891
25.32,0.411303
25.33,0.410764
25.34,0.410271
25.35,0.409819
25.36,0.409406
25.37,0.409027
25.38,0.408679
25.39,0.40836
25.4,0.408067
25.41,0.407798
25.42,0.407549
25.43,0.40732
25.44,0.407109
25.45,0.406913
25.46,0.406732
25.47,0.406564
25.48,0.406407
25.49,0.406262
25.5,0.406127
25.51,0.406001
25.52,0.405883
25.53,0.405773
25.54,0.40567
25.55,0.405574
25.56,0.405483
25.57,0.405398
25.58,0.405319
25.59,0.405243
25.6,0.405173
25.61,0.405106
25.62,0.405043
25.63,0.404983
25.64,0.404927
25.65,0.404873
25.66,0.404823
25.67,0.404775
25.68,0.404729
25.69,0.404686
25.7,0.404645
25.71,0.404606
25.72,0.404568
25.73,0.404533
25.74,0.404499
25.75,0.404467
25.76,0.404436
25.77,0.404407
25.78,0.404378
25.79,0.404352
25.8,0.404326
25.81,0.404301
25.82,0.404277
25.83,0.404255
25.84,0.404233
25.85,0.404212
25.86,0.404192
25.87,0.404173
25.88,0.404154
25.89,0.404136
25.9,0.404119
25.91,0.404103
25.92,0.404087
25.93,0.404071
25.94,0.404056
25.95,0.404042
25.96,0.404028
25.97,0.404015
25.98,0.404002
25.99,0.40399
26,0.403978
26.01,0.403966
26.02,0.403955
26.03,0.403944
26.04,0.403934
26.05,0.403924
26.06,0.403914
26.07,0.403904
26.08,0.403895
26.09,0.403886
26.1,0.403878
26.11,0.403869
26.12,0.403861
26.13,0.403853
26.14,0.403845
26.15,0.403838
26.16,0.403831
26.17,0.403824
26.18,0.403817
26.19,0.40381
26.2,0.403804
26.21,0.403797
26.22,0.403791
26.23,0.403785
26.24,0.403779
26.25,0.403774
26.26,0.403768
26.27,0.403763
26.28,0.403758
26.29,0.403753
26.3,0.403748
26.31,0.403743
26.32,0.403738
26.33,0.403733
26.34,0.403729
26.35,0.403725
26.36,0.40372
26.37,0.403716
26.38,0.403712
26.39,0.403708
26.4,0.403704
26.41,0.4037
26.42,0.403697
26.43,0.403693
26.44,0.40369
26.45,0.403686
26.46,0.403683
26.47,0.403679
26.48,0.403676
26.49,0.403673
26.5,0.40367
26.51,0.403667
26.52,0.403664
26.53,0.403661
26.54,0.403658
26.55,0.403655
26.56,0.403653
26.57,0.40365
26.58,0.403647
26.59,0.403645
26.6,0.403642
26.61,0.40364
26.62,0.403638
26.63,0.403635
26.64,0.403633
26.65,0.403631
26.66,0.403628
26.67,0.403626
26.68,0.403624
26.69,0.403622
26.7,0.40362
26.71,0.403618
26.72,0.403616
26.73,0.403614
26.74,0.403612
26.75,0.40361
26.76,0.403608
26.77,0.403607
26.78,0.403605
26.79,0.403603
26.8,0.403601
26.81,0.4036
26.82,0.403598
26.83,0.403596
26.84,0.403595
26.85,0.403593
26.86,0.403592
26.87,0.40359
26.88,0.403589
26.89,0.403587
26.9,0.403586
26.91,0.403584
26.92,0.403583
26.93,0.403582
26.94,0.40358
26.95,0.403579
26.96,0.403578
26.97,0.403576
26.98,0.403575
26.99,0.403574