File: mgb2/chen_2008/mg_0.99/xrd/curve_1_fit.dat
24.0,0.000296794
24.01,0.000301994
24.02,0.000307331
24.03,0.00031281
24.04,0.000318436
24.05,0.000324214
24.06,0.000330151
24.07,0.000336251
24.08,0.000342521
24.09,0.000348967
24.1,0.000355595
24.11,0.000362413
24.12,0.000369428
24.13,0.000376648
24.14,0.00038408
24.15,0.000391733
24.16,0.000399615
24.17,0.000407736
24.18,0.000416106
24.19,0.000424734
24.2,0.000433631
24.21,0.00044281
24.22,0.00045228
24.23,0.000462056
24.24,0.000472149
24.25,0.000482574
24.26,0.000493346
24.27,0.00050448
24.28,0.000515992
24.29,0.000527899
24.3,0.000540219
24.31,0.000552972
24.32,0.000566178
24.33,0.000579858
24.34,0.000594036
24.35,0.000608734
24.36,0.00062398
24.37,0.0006398
24.38,0.000656223
24.39,0.00067328
24.4,0.000691003
24.41,0.000709427
24.42,0.000728589
24.43,0.000748529
24.44,0.000769289
24.45,0.000790913
24.46,0.00081345
24.47,0.000836952
24.48,0.000861472
24.49,0.00088707
24.5,0.00091381
24.51,0.000941759
24.52,0.000970989
24.53,0.00100158
24.54,0.00103361
24.55,0.00106718
24.56,0.00110239
24.57,0.00113933
24.58,0.00117812
24.59,0.00121889
24.6,0.00126176
24.61,0.00130689
24.62,0.00135443
24.63,0.00140456
24.64,0.00145745
24.65,0.0015133
24.66,0.00157235
24.67,0.00163482
24.68,0.00170099
24.69,0.00177113
24.7,0.00184556
24.71,0.00192464
24.72,0.00200872
24.73,0.00209824
24.74,0.00219365
24.75,0.00229546
24.76,0.00240422
24.77,0.00252055
24.78,0.00264513
24.79,0.00277872
24.8,0.00292215
24.81,0.00307635
24.82,0.00324236
24.83,0.00342131
24.84,0.00361448
24.85,0.0038233
24.86,0.00404933
24.87,0.00429432
24.88,0.00456022
24.89,0.00484919
24.9,0.0051636
24.91,0.00550607
24.92,0.0058795
24.93,0.00628701
24.94,0.00673199
24.95,0.00721805
24.96,0.00774896
24.97,0.0083286
24.98,0.00896076
24.99,0.00964899
25,0.0103962
25.01,0.0112044
25.02,0.012074
25.03,0.0130029
25.04,0.013986
25.05,0.0150139
25.06,0.0160719
25.07,0.017139
25.08,0.0181873
25.09,0.0191824
25.1,0.0200845
25.11,0.0208512
25.12,0.0214413
25.13,0.0218199
25.14,0.0219629
25.15,0.021861
25.16,0.0215208
25.17,0.0209642
25.18,0.0202245
25.19,0.0193422
25.2,0.01836
25.21,0.0173181
25.22,0.016252
25.23,0.0151908
25.24,0.0141566
25.25,0.0131652
25.26,0.0122266
25.27,0.0113469
25.28,0.0105283
25.29,0.00977087
25.3,0.00907287
25.31,0.00843148
25.32,0.00784324
25.33,0.00730438
25.34,0.00681102
25.35,0.00635937
25.36,0.00594578
25.37,0.00556683
25.38,0.00521934
25.39,0.00490039
25.4,0.0046073
25.41,0.00433767
25.42,0.00408929
25.43,0.00386019
25.44,0.00364858
25.45,0.00345287
25.46,0.00327161
25.47,0.0031035
25.48,0.00294739
25.49,0.00280221
25.5,0.00266702
25.51,0.00254097
25.52,0.0024233
25.53,0.00231331
25.54,0.00221037
25.55,0.00211392
25.56,0.00202344
25.57,0.00193846
25.58,0.00185857
25.59,0.00178338
25.6,0.00171253
25.61,0.00164572
25.62,0.00158264
25.63,0.00152304
25.64,0.00146666
25.65,0.00141328
25.66,0.00136271
25.67,0.00131474
25.68,0.00126922
25.69,0.00122597
25.7,0.00118486
25.71,0.00114574
25.72,0.00110849
25.73,0.00107301
25.74,0.00103917
25.75,0.00100688
25.76,0.000976053
25.77,0.000946599
25.78,0.000918439
25.79,0.000891501
25.8,0.000865714
25.81,0.000841016
25.82,0.000817347
25.83,0.000794651
25.84,0.000772876
25.85,0.000751973
25.86,0.000731898
25.87,0.000712607
25.88,0.000694061
25.89,0.000676223
25.9,0.000659056
25.91,0.000642528
25.92,0.000626609
25.93,0.000611268
25.94,0.000596479
25.95,0.000582215
25.96,0.000568452
25.97,0.000555168
25.98,0.00054234
25.99,0.000529948
26,0.000517973
26.01,0.000506395
26.02,0.000495199
26.03,0.000484367
26.04,0.000473885
26.05,0.000463736
26.06,0.000453908
26.07,0.000444387
26.08,0.00043516
26.09,0.000426216
26.1,0.000417543
26.11,0.000409131
26.12,0.000400968
26.13,0.000393046
26.14,0.000385355
26.15,0.000377887
26.16,0.000370632
26.17,0.000363583
26.18,0.000356732
26.19,0.000350072
26.2,0.000343596
26.21,0.000337297
26.22,0.000331168
26.23,0.000325205
26.24,0.0003194
26.25,0.000313749
26.26,0.000308245
26.27,0.000302884
26.28,0.000297662
26.29,0.000292573
26.3,0.000287612
26.31,0.000282776
26.32,0.000278061
26.33,0.000273462
26.34,0.000268976
26.35,0.000264598
26.36,0.000260327
26.37,0.000256157
26.38,0.000252087
26.39,0.000248112
26.4,0.000244231
26.41,0.000240439
26.42,0.000236735
26.43,0.000233115
26.44,0.000229578
26.45,0.00022612
26.46,0.000222739
26.47,0.000219433
26.48,0.000216201
26.49,0.000213039
26.5,0.000209945
26.51,0.000206918
26.52,0.000203956
26.53,0.000201057
26.54,0.000198219
26.55,0.000195441
26.56,0.00019272
26.57,0.000190056
26.58,0.000187447
26.59,0.00018489
26.6,0.000182386
26.61,0.000179932
26.62,0.000177526
26.63,0.000175169
26.64,0.000172858
26.65,0.000170593
26.66,0.000168372
26.67,0.000166193
26.68,0.000164057
26.69,0.000161961
26.7,0.000159905
26.71,0.000157888
26.72,0.000155909
26.73,0.000153967
26.74,0.000152061
26.75,0.000150189
26.76,0.000148352
26.77,0.000146549
26.78,0.000144778
26.79,0.000143039
26.8,0.000141331
26.81,0.000139653
26.82,0.000138005
26.83,0.000136386
26.84,0.000134796
26.85,0.000133232
26.86,0.000131696
26.87,0.000130186
26.88,0.000128702
26.89,0.000127243
26.9,0.000125809
26.91,0.000124399
26.92,0.000123012
26.93,0.000121649
26.94,0.000120307
26.95,0.000118988
26.96,0.000117691
26.97,0.000116414
26.98,0.000115158
26.99,0.000113923