File: mgb2/chen_2008/mg_1.2/xrd/curve_1_fit.dat
24.0,0.000375341
24.01,0.00038217
24.02,0.000389186
24.03,0.000396395
24.04,0.000403805
24.05,0.000411423
24.06,0.000419257
24.07,0.000427315
24.08,0.000435605
24.09,0.000444138
24.1,0.000452921
24.11,0.000461965
24.12,0.00047128
24.13,0.000480878
24.14,0.000490768
24.15,0.000500964
24.16,0.000511479
24.17,0.000522324
24.18,0.000533514
24.19,0.000545065
24.2,0.00055699
24.21,0.000569307
24.22,0.000582032
24.23,0.000595184
24.24,0.000608782
24.25,0.000622845
24.26,0.000637396
24.27,0.000652456
24.28,0.000668049
24.29,0.0006842
24.3,0.000700937
24.31,0.000718286
24.32,0.000736279
24.33,0.000754946
24.34,0.000774322
24.35,0.000794441
24.36,0.000815343
24.37,0.000837067
24.38,0.000859656
24.39,0.000883157
24.4,0.000907617
24.41,0.000933089
24.42,0.000959628
24.43,0.000987294
24.44,0.00101615
24.45,0.00104626
24.46,0.00107771
24.47,0.00111056
24.48,0.0011449
24.49,0.00118082
24.5,0.00121842
24.51,0.0012578
24.52,0.00129906
24.53,0.00134234
24.54,0.00138776
24.55,0.00143545
24.56,0.00148557
24.57,0.00153828
24.58,0.00159375
24.59,0.00165217
24.6,0.00171376
24.61,0.00177872
24.62,0.00184731
24.63,0.00191979
24.64,0.00199643
24.65,0.00207755
24.66,0.0021635
24.67,0.00225463
24.68,0.00235135
24.69,0.00245409
24.7,0.00256335
24.71,0.00267963
24.72,0.00280352
24.73,0.00293564
24.74,0.00307667
24.75,0.00322736
24.76,0.00338854
24.77,0.00356109
24.78,0.003746
24.79,0.00394434
24.8,0.00415726
24.81,0.00438604
24.82,0.00463204
24.83,0.00489674
24.84,0.00518174
24.85,0.00548872
24.86,0.00581949
24.87,0.00617593
24.88,0.00655995
24.89,0.00697353
24.9,0.00741856
24.91,0.00789685
24.92,0.00840994
24.93,0.00895903
24.94,0.00954473
24.95,0.0101669
24.96,0.0108242
24.97,0.0115139
24.98,0.0122317
24.99,0.0129707
25,0.0137217
25.01,0.0144727
25.02,0.0152086
25.03,0.0159116
25.04,0.0165617
25.05,0.0171374
25.06,0.0176176
25.07,0.0179825
25.08,0.0182163
25.09,0.0183082
25.1,0.0182538
25.11,0.0180557
25.12,0.0177231
25.13,0.0172709
25.14,0.0167177
25.15,0.0160847
25.16,0.0153933
25.17,0.0146641
25.18,0.0139154
25.19,0.0131631
25.2,0.01242
25.21,0.0116961
25.22,0.0109986
25.23,0.0103326
25.24,0.00970128
25.25,0.00910615
25.26,0.00854768
25.27,0.00802542
25.28,0.00753833
25.29,0.0070849
25.3,0.00666342
25.31,0.00627198
25.32,0.00590863
25.33,0.00557145
25.34,0.00525852
25.35,0.00496803
25.36,0.00469827
25.37,0.0044476
25.38,0.00421453
25.39,0.00399766
25.4,0.00379568
25.41,0.00360743
25.42,0.00343179
25.43,0.00326778
25.44,0.00311447
25.45,0.00297103
25.46,0.00283669
25.47,0.00271074
25.48,0.00259256
25.49,0.00248155
25.5,0.00237718
25.51,0.00227895
25.52,0.00218642
25.53,0.00209918
25.54,0.00201685
25.55,0.00193909
25.56,0.00186557
25.57,0.00179601
25.58,0.00173013
25.59,0.0016677
25.6,0.00160848
25.61,0.00155227
25.62,0.00149887
25.63,0.0014481
25.64,0.0013998
25.65,0.00135381
25.66,0.00131
25.67,0.00126822
25.68,0.00122837
25.69,0.00119033
25.7,0.00115398
25.71,0.00111924
25.72,0.00108602
25.73,0.00105422
25.74,0.00102377
25.75,0.000994599
25.76,0.000966633
25.77,0.00093981
25.78,0.000914069
25.79,0.000889354
25.8,0.000865611
25.81,0.000842792
25.82,0.00082085
25.83,0.000799741
25.84,0.000779424
25.85,0.00075986
25.86,0.000741014
25.87,0.000722851
25.88,0.000705339
25.89,0.000688448
25.9,0.000672148
25.91,0.000656414
25.92,0.000641219
25.93,0.00062654
25.94,0.000612354
25.95,0.000598638
25.96,0.000585373
25.97,0.00057254
25.98,0.00056012
25.99,0.000548095
26,0.00053645
26.01,0.000525168
26.02,0.000514236
26.03,0.000503638
26.04,0.000493361
26.05,0.000483393
26.06,0.000473721
26.07,0.000464334
26.08,0.000455221
26.09,0.000446372
26.1,0.000437776
26.11,0.000429424
26.12,0.000421307
26.13,0.000413416
26.14,0.000405744
26.15,0.000398281
26.16,0.000391021
26.17,0.000383956
26.18,0.00037708
26.19,0.000370385
26.2,0.000363866
26.21,0.000357516
26.22,0.000351331
26.23,0.000345303
26.24,0.000339428
26.25,0.000333701
26.26,0.000328117
26.27,0.000322671
26.28,0.000317358
26.29,0.000312175
26.3,0.000307118
26.31,0.000302181
26.32,0.000297362
26.33,0.000292657
26.34,0.000288062
26.35,0.000283573
26.36,0.000279189
26.37,0.000274904
26.38,0.000270717
26.39,0.000266625
26.4,0.000262624
26.41,0.000258712
26.42,0.000254887
26.43,0.000251145
26.44,0.000247485
26.45,0.000243903
26.46,0.000240399
26.47,0.000236969
26.48,0.000233612
26.49,0.000230326
26.5,0.000227108
26.51,0.000223956
26.52,0.00022087
26.53,0.000217847
26.54,0.000214885
26.55,0.000211983
26.56,0.000209139
26.57,0.000206351
26.58,0.000203619
26.59,0.000200941
26.6,0.000198315
26.61,0.000195739
26.62,0.000193214
26.63,0.000190737
26.64,0.000188307
26.65,0.000185923
26.66,0.000183584
26.67,0.000181288
26.68,0.000179036
26.69,0.000176824
26.7,0.000174654
26.71,0.000172523
26.72,0.00017043
26.73,0.000168376
26.74,0.000166358
26.75,0.000164376
26.76,0.000162429
26.77,0.000160517
26.78,0.000158638
26.79,0.000156792
26.8,0.000154977
26.81,0.000153194
26.82,0.000151442
26.83,0.000149719
26.84,0.000148025
26.85,0.00014636
26.86,0.000144723
26.87,0.000143113
26.88,0.000141529
26.89,0.000139972
26.9,0.00013844
26.91,0.000136933
26.92,0.000135451
26.93,0.000133992
26.94,0.000132557
26.95,0.000131145
26.96,0.000129755
26.97,0.000128387
26.98,0.00012704
26.99,0.000125715