File: mgb2/chen_2008/mg_1.2/xrd/curve_total_fit.dat
24.0,1.00319
24.01,1.00319
24.02,1.0032
24.03,1.00321
24.04,1.00321
24.05,1.00322
24.06,1.00323
24.07,1.00324
24.08,1.00325
24.09,1.00325
24.1,1.00326
24.11,1.00327
24.12,1.00328
24.13,1.00329
24.14,1.0033
24.15,1.00331
24.16,1.00332
24.17,1.00333
24.18,1.00334
24.19,1.00336
24.2,1.00337
24.21,1.00338
24.22,1.00339
24.23,1.00341
24.24,1.00342
24.25,1.00343
24.26,1.00345
24.27,1.00346
24.28,1.00348
24.29,1.00349
24.3,1.00351
24.31,1.00353
24.32,1.00355
24.33,1.00356
24.34,1.00358
24.35,1.0036
24.36,1.00363
24.37,1.00365
24.38,1.00367
24.39,1.00369
24.4,1.00372
24.41,1.00374
24.42,1.00377
24.43,1.0038
24.44,1.00383
24.45,1.00386
24.46,1.00389
24.47,1.00392
24.48,1.00395
24.49,1.00399
24.5,1.00403
24.51,1.00407
24.52,1.00411
24.53,1.00415
24.54,1.0042
24.55,1.00425
24.56,1.0043
24.57,1.00435
24.58,1.0044
24.59,1.00446
24.6,1.00452
24.61,1.00459
24.62,1.00466
24.63,1.00473
24.64,1.00481
24.65,1.00489
24.66,1.00497
24.67,1.00506
24.68,1.00516
24.69,1.00526
24.7,1.00537
24.71,1.00549
24.72,1.00561
24.73,1.00575
24.74,1.00589
24.75,1.00604
24.76,1.0062
24.77,1.00637
24.78,1.00656
24.79,1.00675
24.8,1.00697
24.81,1.0072
24.82,1.00744
24.83,1.00771
24.84,1.00799
24.85,1.0083
24.86,1.00863
24.87,1.00899
24.88,1.00937
24.89,1.00978
24.9,1.01023
24.91,1.01071
24.92,1.01122
24.93,1.01177
24.94,1.01235
24.95,1.01298
24.96,1.01363
24.97,1.01432
24.98,1.01504
24.99,1.01578
25,1.01653
25.01,1.01728
25.02,1.01802
25.03,1.01872
25.04,1.01937
25.05,1.01995
25.06,1.02043
25.07,1.02079
25.08,1.02103
25.09,1.02112
25.1,1.02106
25.11,1.02087
25.12,1.02053
25.13,1.02008
25.14,1.01953
25.15,1.01889
25.16,1.0182
25.17,1.01747
25.18,1.01673
25.19,1.01597
25.2,1.01523
25.21,1.01451
25.22,1.01381
25.23,1.01314
25.24,1.01251
25.25,1.01192
25.26,1.01136
25.27,1.01084
25.28,1.01035
25.29,1.00989
25.3,1.00947
25.31,1.00908
25.32,1.00872
25.33,1.00838
25.34,1.00807
25.35,1.00778
25.36,1.00751
25.37,1.00726
25.38,1.00702
25.39,1.00681
25.4,1.00661
25.41,1.00642
25.42,1.00624
25.43,1.00608
25.44,1.00592
25.45,1.00578
25.46,1.00565
25.47,1.00552
25.48,1.0054
25.49,1.00529
25.5,1.00519
25.51,1.00509
25.52,1.005
25.53,1.00491
25.54,1.00483
25.55,1.00475
25.56,1.00468
25.57,1.00461
25.58,1.00454
25.59,1.00448
25.6,1.00442
25.61,1.00436
25.62,1.00431
25.63,1.00426
25.64,1.00421
25.65,1.00416
25.66,1.00412
25.67,1.00408
25.68,1.00404
25.69,1.004
25.7,1.00396
25.71,1.00393
25.72,1.0039
25.73,1.00386
25.74,1.00383
25.75,1.0038
25.76,1.00378
25.77,1.00375
25.78,1.00372
25.79,1.0037
25.8,1.00368
25.81,1.00365
25.82,1.00363
25.83,1.00361
25.84,1.00359
25.85,1.00357
25.86,1.00355
25.87,1.00353
25.88,1.00352
25.89,1.0035
25.9,1.00348
25.91,1.00347
25.92,1.00345
25.93,1.00344
25.94,1.00342
25.95,1.00341
25.96,1.0034
25.97,1.00338
25.98,1.00337
25.99,1.00336
26,1.00335
26.01,1.00334
26.02,1.00332
26.03,1.00331
26.04,1.0033
26.05,1.00329
26.06,1.00328
26.07,1.00327
26.08,1.00327
26.09,1.00326
26.1,1.00325
26.11,1.00324
26.12,1.00323
26.13,1.00322
26.14,1.00322
26.15,1.00321
26.16,1.0032
26.17,1.00319
26.18,1.00319
26.19,1.00318
26.2,1.00317
26.21,1.00317
26.22,1.00316
26.23,1.00316
26.24,1.00315
26.25,1.00314
26.26,1.00314
26.27,1.00313
26.28,1.00313
26.29,1.00312
26.3,1.00312
26.31,1.00311
26.32,1.00311
26.33,1.0031
26.34,1.0031
26.35,1.00309
26.36,1.00309
26.37,1.00308
26.38,1.00308
26.39,1.00308
26.4,1.00307
26.41,1.00307
26.42,1.00306
26.43,1.00306
26.44,1.00306
26.45,1.00305
26.46,1.00305
26.47,1.00305
26.48,1.00304
26.49,1.00304
26.5,1.00304
26.51,1.00303
26.52,1.00303
26.53,1.00303
26.54,1.00302
26.55,1.00302
26.56,1.00302
26.57,1.00302
26.58,1.00301
26.59,1.00301
26.6,1.00301
26.61,1.00301
26.62,1.003
26.63,1.003
26.64,1.003
26.65,1.003
26.66,1.00299
26.67,1.00299
26.68,1.00299
26.69,1.00299
26.7,1.00298
26.71,1.00298
26.72,1.00298
26.73,1.00298
26.74,1.00298
26.75,1.00297
26.76,1.00297
26.77,1.00297
26.78,1.00297
26.79,1.00297
26.8,1.00296
26.81,1.00296
26.82,1.00296
26.83,1.00296
26.84,1.00296
26.85,1.00296
26.86,1.00295
26.87,1.00295
26.88,1.00295
26.89,1.00295
26.9,1.00295
26.91,1.00295
26.92,1.00295
26.93,1.00294
26.94,1.00294
26.95,1.00294
26.96,1.00294
26.97,1.00294
26.98,1.00294
26.99,1.00294