File: mgb2/chen_2008/mg_1.2/xrd/xrd.csv
23.9767, 1.00449
24.2608, 1.00327
24.5449, 1.00525
24.829, 1.00723
25.1132, 1.02083
25.3973, 1.00599
25.6814, 1.00477
25.9655, 1.00395
26.2496, 1.00433
26.439, 1.00472