File: pb/bose_2007/40nm/xrd/curve_1_fit.dat
35.0,0.826725
35.01,0.839339
35.02,0.852244
35.03,0.865447
35.04,0.878958
35.05,0.892786
35.06,0.906941
35.07,0.921435
35.08,0.936276
35.09,0.951478
35.1,0.967051
35.11,0.983007
35.12,0.99936
35.13,1.01612
35.14,1.03331
35.15,1.05093
35.16,1.069
35.17,1.08754
35.18,1.10657
35.19,1.1261
35.2,1.14614
35.21,1.16672
35.22,1.18786
35.23,1.20957
35.24,1.23189
35.25,1.25481
35.26,1.27839
35.27,1.30262
35.28,1.32755
35.29,1.3532
35.3,1.37959
35.31,1.40675
35.32,1.43472
35.33,1.46353
35.34,1.4932
35.35,1.52378
35.36,1.5553
35.37,1.5878
35.38,1.62132
35.39,1.65591
35.4,1.6916
35.41,1.72845
35.42,1.7665
35.43,1.80582
35.44,1.84644
35.45,1.88844
35.46,1.93188
35.47,1.97682
35.48,2.02332
35.49,2.07147
35.5,2.12134
35.51,2.173
35.52,2.22656
35.53,2.2821
35.54,2.33972
35.55,2.39951
35.56,2.4616
35.57,2.5261
35.58,2.59313
35.59,2.66283
35.6,2.73533
35.61,2.81079
35.62,2.88937
35.63,2.97123
35.64,3.05657
35.65,3.14557
35.66,3.23845
35.67,3.33543
35.68,3.43675
35.69,3.54266
35.7,3.65345
35.71,3.76942
35.72,3.89087
35.73,4.01816
35.74,4.15165
35.75,4.29175
35.76,4.43889
35.77,4.59353
35.78,4.75618
35.79,4.92738
35.8,5.10773
35.81,5.29786
35.82,5.49848
35.83,5.71035
35.84,5.93428
35.85,6.17117
35.86,6.42201
35.87,6.68787
35.88,6.9699
35.89,7.2694
35.9,7.58776
35.91,7.92651
35.92,8.28734
35.93,8.67208
35.94,9.08277
35.95,9.52164
35.96,9.99114
35.97,10.494
35.98,11.0331
35.99,11.6118
36,12.2336
36.01,12.9026
36.02,13.623
36.03,14.3997
36.04,15.2379
36.05,16.1433
36.06,17.122
36.07,18.181
36.08,19.3273
36.09,20.5688
36.1,21.9135
36.11,23.37
36.12,24.9468
36.13,26.6523
36.14,28.4946
36.15,30.4804
36.16,32.6147
36.17,34.8997
36.18,37.3338
36.19,39.9096
36.2,42.6124
36.21,45.4185
36.22,48.2929
36.23,51.1878
36.24,54.0417
36.25,56.7795
36.26,59.3149
36.27,61.5546
36.28,63.4045
36.29,64.7788
36.3,65.6083
36.31,65.8492
36.32,65.4885
36.33,64.5456
36.34,63.07
36.35,61.1349
36.36,58.8284
36.37,56.2452
36.38,53.4776
36.39,50.61
36.4,47.7147
36.41,44.8505
36.42,42.0627
36.43,39.3837
36.44,36.8353
36.45,34.4307
36.46,32.1758
36.47,30.0715
36.48,28.1149
36.49,26.3005
36.5,24.6214
36.51,23.0693
36.52,21.6359
36.53,20.3125
36.54,19.0907
36.55,17.9624
36.56,16.9201
36.57,15.9565
36.58,15.0651
36.59,14.2397
36.6,13.4746
36.61,12.7648
36.62,12.1056
36.63,11.4927
36.64,10.9222
36.65,10.3906
36.66,9.89466
36.67,9.4315
36.68,8.99845
36.69,8.59312
36.7,8.21332
36.71,7.85705
36.72,7.52251
36.73,7.20804
36.74,6.91214
36.75,6.63344
36.76,6.37068
36.77,6.12271
36.78,5.88848
36.79,5.66704
36.8,5.45749
36.81,5.25902
36.82,5.0709
36.83,4.89243
36.84,4.72298
36.85,4.56198
36.86,4.40888
36.87,4.26318
36.88,4.12444
36.89,3.99222
36.9,3.86612
36.91,3.7458
36.92,3.63089
36.93,3.5211
36.94,3.41612
36.95,3.31569
36.96,3.21955
36.97,3.12747
36.98,3.03921
36.99,2.95459
37,2.87339
37.01,2.79545
37.02,2.7206
37.03,2.64867
37.04,2.57952
37.05,2.513
37.06,2.449
37.07,2.38737
37.08,2.32802
37.09,2.27083
37.1,2.2157
37.11,2.16252
37.12,2.11122
37.13,2.0617
37.14,2.01389
37.15,1.96771
37.16,1.92308
37.17,1.87993
37.18,1.83821
37.19,1.79785
37.2,1.75879
37.21,1.72098
37.22,1.68437
37.23,1.6489
37.24,1.61453
37.25,1.58122
37.26,1.54892
37.27,1.51759
37.28,1.4872
37.29,1.4577
37.3,1.42906
37.31,1.40126
37.32,1.37425
37.33,1.34801
37.34,1.32251
37.35,1.29772
37.36,1.27362
37.37,1.25018
37.38,1.22737
37.39,1.20518
37.4,1.18359
37.41,1.16256
37.42,1.14209
37.43,1.12215
37.44,1.10273
37.45,1.0838
37.46,1.06535
37.47,1.04737
37.48,1.02984
37.49,1.01274
37.5,0.996057
37.51,0.979785
37.52,0.963906
37.53,0.948408
37.54,0.93328
37.55,0.918508
37.56,0.904084
37.57,0.889994
37.58,0.87623
37.59,0.862782
37.6,0.849639
37.61,0.836794
37.62,0.824236
37.63,0.811957
37.64,0.79995
37.65,0.788206
37.66,0.776718
37.67,0.765478
37.68,0.75448
37.69,0.743716
37.7,0.733179
37.71,0.722865
37.72,0.712765
37.73,0.702875
37.74,0.693189
37.75,0.683701
37.76,0.674406
37.77,0.665298
37.78,0.656374
37.79,0.647626
37.8,0.639052
37.81,0.630647
37.82,0.622406
37.83,0.614325
37.84,0.606399
37.85,0.598626
37.86,0.591001
37.87,0.58352
37.88,0.57618
37.89,0.568977
37.9,0.561908
37.91,0.554969
37.92,0.548158
37.93,0.541471
37.94,0.534905
37.95,0.528458
37.96,0.522126
37.97,0.515908
37.98,0.509799
37.99,0.503798
37.999,0.498487