File: pb/bose_2007/40nm/xrd/curve_total_fit.dat
35.0,468.827
35.01,468.839
35.02,468.852
35.03,468.865
35.04,468.879
35.05,468.893
35.06,468.907
35.07,468.921
35.08,468.936
35.09,468.951
35.1,468.967
35.11,468.983
35.12,468.999
35.13,469.016
35.14,469.033
35.15,469.051
35.16,469.069
35.17,469.088
35.18,469.107
35.19,469.126
35.2,469.146
35.21,469.167
35.22,469.188
35.23,469.21
35.24,469.232
35.25,469.255
35.26,469.278
35.27,469.303
35.28,469.328
35.29,469.353
35.3,469.38
35.31,469.407
35.32,469.435
35.33,469.464
35.34,469.493
35.35,469.524
35.36,469.555
35.37,469.588
35.38,469.621
35.39,469.656
35.4,469.692
35.41,469.728
35.42,469.767
35.43,469.806
35.44,469.846
35.45,469.888
35.46,469.932
35.47,469.977
35.48,470.023
35.49,470.071
35.5,470.121
35.51,470.173
35.52,470.227
35.53,470.282
35.54,470.34
35.55,470.4
35.56,470.462
35.57,470.526
35.58,470.593
35.59,470.663
35.6,470.735
35.61,470.811
35.62,470.889
35.63,470.971
35.64,471.057
35.65,471.146
35.66,471.238
35.67,471.335
35.68,471.437
35.69,471.543
35.7,471.653
35.71,471.769
35.72,471.891
35.73,472.018
35.74,472.152
35.75,472.292
35.76,472.439
35.77,472.594
35.78,472.756
35.79,472.927
35.8,473.108
35.81,473.298
35.82,473.498
35.83,473.71
35.84,473.934
35.85,474.171
35.86,474.422
35.87,474.688
35.88,474.97
35.89,475.269
35.9,475.588
35.91,475.927
35.92,476.287
35.93,476.672
35.94,477.083
35.95,477.522
35.96,477.991
35.97,478.494
35.98,479.033
35.99,479.612
36,480.234
36.01,480.903
36.02,481.623
36.03,482.4
36.04,483.238
36.05,484.143
36.06,485.122
36.07,486.181
36.08,487.327
36.09,488.569
36.1,489.913
36.11,491.37
36.12,492.947
36.13,494.652
36.14,496.495
36.15,498.48
36.16,500.615
36.17,502.9
36.18,505.334
36.19,507.91
36.2,510.612
36.21,513.419
36.22,516.293
36.23,519.188
36.24,522.042
36.25,524.779
36.26,527.315
36.27,529.555
36.28,531.405
36.29,532.779
36.3,533.608
36.31,533.849
36.32,533.488
36.33,532.546
36.34,531.07
36.35,529.135
36.36,526.828
36.37,524.245
36.38,521.478
36.39,518.61
36.4,515.715
36.41,512.851
36.42,510.063
36.43,507.384
36.44,504.835
36.45,502.431
36.46,500.176
36.47,498.071
36.48,496.115
36.49,494.301
36.5,492.621
36.51,491.069
36.52,489.636
36.53,488.312
36.54,487.091
36.55,485.962
36.56,484.92
36.57,483.957
36.58,483.065
36.59,482.24
36.6,481.475
36.61,480.765
36.62,480.106
36.63,479.493
36.64,478.922
36.65,478.391
36.66,477.895
36.67,477.431
36.68,476.998
36.69,476.593
36.7,476.213
36.71,475.857
36.72,475.523
36.73,475.208
36.74,474.912
36.75,474.633
36.76,474.371
36.77,474.123
36.78,473.888
36.79,473.667
36.8,473.457
36.81,473.259
36.82,473.071
36.83,472.892
36.84,472.723
36.85,472.562
36.86,472.409
36.87,472.263
36.88,472.124
36.89,471.992
36.9,471.866
36.91,471.746
36.92,471.631
36.93,471.521
36.94,471.416
36.95,471.316
36.96,471.22
36.97,471.127
36.98,471.039
36.99,470.955
37,470.873
37.01,470.795
37.02,470.721
37.03,470.649
37.04,470.58
37.05,470.513
37.06,470.449
37.07,470.387
37.08,470.328
37.09,470.271
37.1,470.216
37.11,470.163
37.12,470.111
37.13,470.062
37.14,470.014
37.15,469.968
37.16,469.923
37.17,469.88
37.18,469.838
37.19,469.798
37.2,469.759
37.21,469.721
37.22,469.684
37.23,469.649
37.24,469.615
37.25,469.581
37.26,469.549
37.27,469.518
37.28,469.487
37.29,469.458
37.3,469.429
37.31,469.401
37.32,469.374
37.33,469.348
37.34,469.323
37.35,469.298
37.36,469.274
37.37,469.25
37.38,469.227
37.39,469.205
37.4,469.184
37.41,469.163
37.42,469.142
37.43,469.122
37.44,469.103
37.45,469.084
37.46,469.065
37.47,469.047
37.48,469.03
37.49,469.013
37.5,468.996
37.51,468.98
37.52,468.964
37.53,468.948
37.54,468.933
37.55,468.919
37.56,468.904
37.57,468.89
37.58,468.876
37.59,468.863
37.6,468.85
37.61,468.837
37.62,468.824
37.63,468.812
37.64,468.8
37.65,468.788
37.66,468.777
37.67,468.765
37.68,468.754
37.69,468.744
37.7,468.733
37.71,468.723
37.72,468.713
37.73,468.703
37.74,468.693
37.75,468.684
37.76,468.674
37.77,468.665
37.78,468.656
37.79,468.648
37.8,468.639
37.81,468.631
37.82,468.622
37.83,468.614
37.84,468.606
37.85,468.599
37.86,468.591
37.87,468.584
37.88,468.576
37.89,468.569
37.9,468.562
37.91,468.555
37.92,468.548
37.93,468.541
37.94,468.535
37.95,468.528
37.96,468.522
37.97,468.516
37.98,468.51
37.99,468.504
37.999,468.498