File: pb/bose_2007/40nm/xrd/xrd.csv
35.8485, 470.677
36.008, 483.57
36.1337, 496.649
36.2094, 511.554
36.296, 533.353
36.4292, 509.068
36.5531, 485.535
36.7421, 472.572
36.89, 467.939