File: mgb2/chen_2008/mg_1.1/xrd/curve_total_fit.dat
24.0,0.802915
24.01,0.802921
24.02,0.802927
24.03,0.802933
24.04,0.802939
24.05,0.802946
24.06,0.802952
24.07,0.802959
24.08,0.802966
24.09,0.802973
24.1,0.80298
24.11,0.802988
24.12,0.802995
24.13,0.803003
24.14,0.803011
24.15,0.80302
24.16,0.803028
24.17,0.803037
24.18,0.803046
24.19,0.803056
24.2,0.803065
24.21,0.803075
24.22,0.803085
24.23,0.803096
24.24,0.803107
24.25,0.803118
24.26,0.80313
24.27,0.803142
24.28,0.803154
24.29,0.803167
24.3,0.80318
24.31,0.803194
24.32,0.803208
24.33,0.803223
24.34,0.803238
24.35,0.803253
24.36,0.80327
24.37,0.803286
24.38,0.803304
24.39,0.803322
24.4,0.803341
24.41,0.80336
24.42,0.80338
24.43,0.803401
24.44,0.803423
24.45,0.803445
24.46,0.803469
24.47,0.803493
24.48,0.803519
24.49,0.803545
24.5,0.803573
24.51,0.803602
24.52,0.803632
24.53,0.803663
24.54,0.803695
24.55,0.80373
24.56,0.803765
24.57,0.803803
24.58,0.803842
24.59,0.803883
24.6,0.803925
24.61,0.80397
24.62,0.804017
24.63,0.804067
24.64,0.804119
24.65,0.804173
24.66,0.804231
24.67,0.804291
24.68,0.804355
24.69,0.804422
24.7,0.804493
24.71,0.804567
24.72,0.804646
24.73,0.80473
24.74,0.804818
24.75,0.804911
24.76,0.80501
24.77,0.805115
24.78,0.805226
24.79,0.805345
24.8,0.80547
24.81,0.805604
24.82,0.805746
24.83,0.805898
24.84,0.806059
24.85,0.806231
24.86,0.806415
24.87,0.806611
24.88,0.80682
24.89,0.807043
24.9,0.807282
24.91,0.807536
24.92,0.807808
24.93,0.808099
24.94,0.808408
24.95,0.808738
24.96,0.809089
24.97,0.809461
24.98,0.809856
24.99,0.810273
25,0.810711
25.01,0.81117
25.02,0.811648
25.03,0.812143
25.04,0.81265
25.05,0.813164
25.06,0.813681
25.07,0.814191
25.08,0.814686
25.09,0.815156
25.1,0.81559
25.11,0.815976
25.12,0.816303
25.13,0.816561
25.14,0.816741
25.15,0.816836
25.16,0.816844
25.17,0.816763
25.18,0.816597
25.19,0.816351
25.2,0.816035
25.21,0.815658
25.22,0.815231
25.23,0.814767
25.24,0.814275
25.25,0.813767
25.26,0.813251
25.27,0.812735
25.28,0.812226
25.29,0.81173
25.3,0.811249
25.31,0.810786
25.32,0.810344
25.33,0.809924
25.34,0.809526
25.35,0.809149
25.36,0.808795
25.37,0.808462
25.38,0.808149
25.39,0.807856
25.4,0.807581
25.41,0.807323
25.42,0.807082
25.43,0.806856
25.44,0.806645
25.45,0.806447
25.46,0.806261
25.47,0.806087
25.48,0.805924
25.49,0.805771
25.5,0.805627
25.51,0.805492
25.52,0.805365
25.53,0.805246
25.54,0.805133
25.55,0.805027
25.56,0.804927
25.57,0.804833
25.58,0.804744
25.59,0.80466
25.6,0.80458
25.61,0.804505
25.62,0.804433
25.63,0.804366
25.64,0.804302
25.65,0.804241
25.66,0.804183
25.67,0.804128
25.68,0.804075
25.69,0.804025
25.7,0.803978
25.71,0.803933
25.72,0.80389
25.73,0.803848
25.74,0.803809
25.75,0.803771
25.76,0.803735
25.77,0.803701
25.78,0.803668
25.79,0.803637
25.8,0.803606
25.81,0.803577
25.82,0.80355
25.83,0.803523
25.84,0.803497
25.85,0.803473
25.86,0.803449
25.87,0.803426
25.88,0.803405
25.89,0.803383
25.9,0.803363
25.91,0.803344
25.92,0.803325
25.93,0.803307
25.94,0.803289
25.95,0.803272
25.96,0.803256
25.97,0.80324
25.98,0.803225
25.99,0.80321
26,0.803196
26.01,0.803182
26.02,0.803169
26.03,0.803156
26.04,0.803144
26.05,0.803132
26.06,0.80312
26.07,0.803109
26.08,0.803098
26.09,0.803087
26.1,0.803077
26.11,0.803067
26.12,0.803057
26.13,0.803048
26.14,0.803039
26.15,0.80303
26.16,0.803021
26.17,0.803013
26.18,0.803005
26.19,0.802997
26.2,0.802989
26.21,0.802981
26.22,0.802974
26.23,0.802967
26.24,0.80296
26.25,0.802953
26.26,0.802947
26.27,0.80294
26.28,0.802934
26.29,0.802928
26.3,0.802922
26.31,0.802916
26.32,0.802911
26.33,0.802905
26.34,0.8029
26.35,0.802895
26.36,0.80289
26.37,0.802885
26.38,0.80288
26.39,0.802875
26.4,0.80287
26.41,0.802866
26.42,0.802862
26.43,0.802857
26.44,0.802853
26.45,0.802849
26.46,0.802845
26.47,0.802841
26.48,0.802837
26.49,0.802833
26.5,0.80283
26.51,0.802826
26.52,0.802822
26.53,0.802819
26.54,0.802816
26.55,0.802812
26.56,0.802809
26.57,0.802806
26.58,0.802803
26.59,0.8028
26.6,0.802797
26.61,0.802794
26.62,0.802791
26.63,0.802788
26.64,0.802785
26.65,0.802783
26.66,0.80278
26.67,0.802777
26.68,0.802775
26.69,0.802772
26.7,0.80277
26.71,0.802767
26.72,0.802765
26.73,0.802763
26.74,0.802761
26.75,0.802758
26.76,0.802756
26.77,0.802754
26.78,0.802752
26.79,0.80275
26.8,0.802748
26.81,0.802746
26.82,0.802744
26.83,0.802742
26.84,0.80274
26.85,0.802738
26.86,0.802736
26.87,0.802734
26.88,0.802733
26.89,0.802731
26.9,0.802729
26.91,0.802728
26.92,0.802726
26.93,0.802724
26.94,0.802723
26.95,0.802721
26.96,0.80272
26.97,0.802718
26.98,0.802717
26.99,0.802715