File: mgb2/chen_2008/mg_1.1/xrd/curve_1_fit.dat
24.0,0.000335442
24.01,0.000341182
24.02,0.000347069
24.03,0.000353108
24.04,0.000359306
24.05,0.000365666
24.06,0.000372196
24.07,0.0003789
24.08,0.000385785
24.09,0.000392858
24.1,0.000400125
24.11,0.000407594
24.12,0.000415272
24.13,0.000423166
24.14,0.000431286
24.15,0.000439639
24.16,0.000448234
24.17,0.000457081
24.18,0.000466189
24.19,0.000475569
24.2,0.000485232
24.21,0.000495189
24.22,0.000505451
24.23,0.000516032
24.24,0.000526944
24.25,0.000538202
24.26,0.000549819
24.27,0.000561811
24.28,0.000574195
24.29,0.000586986
24.3,0.000600203
24.31,0.000613865
24.32,0.000627991
24.33,0.000642603
24.34,0.000657722
24.35,0.000673372
24.36,0.000689578
24.37,0.000706366
24.38,0.000723763
24.39,0.000741799
24.4,0.000760505
24.41,0.000779913
24.42,0.000800058
24.43,0.000820978
24.44,0.000842712
24.45,0.000865302
24.46,0.000888792
24.47,0.000913228
24.48,0.000938663
24.49,0.000965149
24.5,0.000992743
24.51,0.00102151
24.52,0.0010515
24.53,0.00108281
24.54,0.00111549
24.55,0.00114962
24.56,0.0011853
24.57,0.00122262
24.58,0.00126166
24.59,0.00130255
24.6,0.00134538
24.61,0.00139028
24.62,0.00143738
24.63,0.00148682
24.64,0.00153875
24.65,0.00159333
24.66,0.00165074
24.67,0.00171116
24.68,0.0017748
24.69,0.00184188
24.7,0.00191263
24.71,0.00198731
24.72,0.0020662
24.73,0.00214959
24.74,0.00223782
24.75,0.00233122
24.76,0.00243018
24.77,0.00253512
24.78,0.00264647
24.79,0.00276472
24.8,0.00289038
24.81,0.00302402
24.82,0.00316624
24.83,0.0033177
24.84,0.00347909
24.85,0.00365116
24.86,0.00383472
24.87,0.00403063
24.88,0.00423978
24.89,0.00446312
24.9,0.00470166
24.91,0.0049564
24.92,0.00522838
24.93,0.00551864
24.94,0.00582819
24.95,0.00615796
24.96,0.00650876
24.97,0.00688125
24.98,0.00727582
24.99,0.00769252
25,0.00813092
25.01,0.00859005
25.02,0.00906814
25.03,0.00956258
25.04,0.0100697
25.05,0.0105845
25.06,0.0111008
25.07,0.011611
25.08,0.0121062
25.09,0.0125762
25.1,0.01301
25.11,0.0133961
25.12,0.0137233
25.13,0.0139811
25.14,0.0141609
25.15,0.0142562
25.16,0.0142636
25.17,0.0141828
25.18,0.0140167
25.19,0.0137714
25.2,0.0134551
25.21,0.0130781
25.22,0.0126515
25.23,0.0121867
25.24,0.011695
25.25,0.0111866
25.26,0.0106708
25.27,0.0101552
25.28,0.00964647
25.29,0.00914964
25.3,0.0086686
25.31,0.00820617
25.32,0.00776422
25.33,0.00734385
25.34,0.00694558
25.35,0.00656943
25.36,0.00621504
25.37,0.00588182
25.38,0.00556896
25.39,0.00527554
25.4,0.00500058
25.41,0.00474303
25.42,0.00450186
25.43,0.00427605
25.44,0.0040646
25.45,0.00386655
25.46,0.00368099
25.47,0.00350705
25.48,0.00334393
25.49,0.00319087
25.5,0.00304715
25.51,0.00291212
25.52,0.00278517
25.53,0.00266572
25.54,0.00255325
25.55,0.00244728
25.56,0.00234734
25.57,0.00225304
25.58,0.00216398
25.59,0.0020798
25.6,0.00200018
25.61,0.00192482
25.62,0.00185343
25.63,0.00178576
25.64,0.00172156
25.65,0.00166061
25.66,0.00160272
25.67,0.00154768
25.68,0.00149531
25.69,0.00144547
25.7,0.00139799
25.71,0.00135273
25.72,0.00130956
25.73,0.00126836
25.74,0.00122901
25.75,0.00119142
25.76,0.00115547
25.77,0.00112108
25.78,0.00108816
25.79,0.00105664
25.8,0.00102643
25.81,0.000997462
25.82,0.000969677
25.83,0.00094301
25.84,0.000917404
25.85,0.000892804
25.86,0.00086916
25.87,0.000846423
25.88,0.000824549
25.89,0.000803496
25.9,0.000783224
25.91,0.000763695
25.92,0.000744874
25.93,0.000726729
25.94,0.000709227
25.95,0.00069234
25.96,0.000676039
25.97,0.000660297
25.98,0.000645091
25.99,0.000630396
26,0.00061619
26.01,0.000602452
26.02,0.000589162
26.03,0.000576301
26.04,0.000563851
26.05,0.000551795
26.06,0.000540116
26.07,0.000528799
26.08,0.000517831
26.09,0.000507195
26.1,0.00049688
26.11,0.000486874
26.12,0.000477162
26.13,0.000467736
26.14,0.000458583
26.15,0.000449693
26.16,0.000441056
26.17,0.000432664
26.18,0.000424506
26.19,0.000416575
26.2,0.000408861
26.21,0.000401358
26.22,0.000394058
26.23,0.000386953
26.24,0.000380037
26.25,0.000373303
26.26,0.000366744
26.27,0.000360356
26.28,0.000354132
26.29,0.000348066
26.3,0.000342154
26.31,0.00033639
26.32,0.000330769
26.33,0.000325287
26.34,0.000319939
26.35,0.00031472
26.36,0.000309628
26.37,0.000304657
26.38,0.000299804
26.39,0.000295065
26.4,0.000290437
26.41,0.000285917
26.42,0.0002815
26.43,0.000277184
26.44,0.000272966
26.45,0.000268843
26.46,0.000264813
26.47,0.000260871
26.48,0.000257017
26.49,0.000253246
26.5,0.000249558
26.51,0.000245949
26.52,0.000242417
26.53,0.000238961
26.54,0.000235577
26.55,0.000232265
26.56,0.000229021
26.57,0.000225845
26.58,0.000222734
26.59,0.000219686
26.6,0.0002167
26.61,0.000213775
26.62,0.000210907
26.63,0.000208097
26.64,0.000205343
26.65,0.000202642
26.66,0.000199994
26.67,0.000197398
26.68,0.000194851
26.69,0.000192354
26.7,0.000189903
26.71,0.0001875
26.72,0.000185141
26.73,0.000182826
26.74,0.000180554
26.75,0.000178324
26.76,0.000176135
26.77,0.000173986
26.78,0.000171876
26.79,0.000169804
26.8,0.000167769
26.81,0.00016577
26.82,0.000163807
26.83,0.000161878
26.84,0.000159983
26.85,0.00015812
26.86,0.00015629
26.87,0.000154492
26.88,0.000152724
26.89,0.000150986
26.9,0.000149278
26.91,0.000147599
26.92,0.000145947
26.93,0.000144323
26.94,0.000142726
26.95,0.000141155
26.96,0.00013961
26.97,0.00013809
26.98,0.000136594
26.99,0.000135123