File: mgb2/chen_2008/mg_1.1/xrd/xrd.csv
23.882, 0.802854
24.1661, 0.802835
24.4502, 0.804815
24.7343, 0.804795
24.9237, 0.807983
25.1132, 0.815971
25.3026, 0.811557
25.492, 0.804343
25.7761, 0.803923
26.0602, 0.803503
26.3443, 0.803884