File: mgb2/chen_2008/mg_1.0/xrd/curve_total_fit.dat
24.0,0.60291
24.01,0.602913
24.02,0.602915
24.03,0.602918
24.04,0.602921
24.05,0.602924
24.06,0.602927
24.07,0.60293
24.08,0.602933
24.09,0.602937
24.1,0.60294
24.11,0.602944
24.12,0.602947
24.13,0.602951
24.14,0.602955
24.15,0.602959
24.16,0.602962
24.17,0.602967
24.18,0.602971
24.19,0.602975
24.2,0.60298
24.21,0.602984
24.22,0.602989
24.23,0.602994
24.24,0.602999
24.25,0.603004
24.26,0.60301
24.27,0.603015
24.28,0.603021
24.29,0.603027
24.3,0.603033
24.31,0.603039
24.32,0.603046
24.33,0.603052
24.34,0.603059
24.35,0.603067
24.36,0.603074
24.37,0.603082
24.38,0.60309
24.39,0.603098
24.4,0.603107
24.41,0.603116
24.42,0.603125
24.43,0.603135
24.44,0.603145
24.45,0.603155
24.46,0.603166
24.47,0.603177
24.48,0.603189
24.49,0.603201
24.5,0.603214
24.51,0.603227
24.52,0.603241
24.53,0.603255
24.54,0.60327
24.55,0.603286
24.56,0.603303
24.57,0.60332
24.58,0.603338
24.59,0.603357
24.6,0.603377
24.61,0.603398
24.62,0.603419
24.63,0.603442
24.64,0.603467
24.65,0.603492
24.66,0.603519
24.67,0.603547
24.68,0.603577
24.69,0.603609
24.7,0.603642
24.71,0.603678
24.72,0.603715
24.73,0.603755
24.74,0.603797
24.75,0.603842
24.76,0.60389
24.77,0.603941
24.78,0.603996
24.79,0.604054
24.8,0.604117
24.81,0.604183
24.82,0.604255
24.83,0.604333
24.84,0.604416
24.85,0.604506
24.86,0.604603
24.87,0.604708
24.88,0.604822
24.89,0.604947
24.9,0.605082
24.91,0.60523
24.92,0.605392
24.93,0.605569
24.94,0.605765
24.95,0.60598
24.96,0.606219
24.97,0.606483
24.98,0.606777
24.99,0.607105
25,0.607471
25.01,0.607883
25.02,0.608345
25.03,0.608868
25.04,0.609458
25.05,0.610128
25.06,0.61089
25.07,0.611756
25.08,0.612742
25.09,0.613863
25.1,0.615134
25.11,0.616568
25.12,0.61817
25.13,0.619935
25.14,0.621837
25.15,0.623825
25.16,0.625808
25.17,0.627657
25.18,0.629214
25.19,0.630309
25.2,0.630806
25.21,0.630636
25.22,0.629824
25.23,0.628475
25.24,0.626749
25.25,0.624814
25.26,0.622815
25.27,0.620862
25.28,0.619025
25.29,0.61734
25.3,0.615823
25.31,0.614473
25.32,0.613279
25.33,0.612228
25.34,0.611304
25.35,0.610493
25.36,0.609779
25.37,0.609151
25.38,0.608596
25.39,0.608105
25.4,0.607669
25.41,0.607281
25.42,0.606935
25.43,0.606625
25.44,0.606346
25.45,0.606095
25.46,0.605869
25.47,0.605664
25.48,0.605478
25.49,0.605308
25.5,0.605154
25.51,0.605012
25.52,0.604883
25.53,0.604764
25.54,0.604654
25.55,0.604553
25.56,0.60446
25.57,0.604373
25.58,0.604293
25.59,0.604218
25.6,0.604149
25.61,0.604084
25.62,0.604024
25.63,0.603968
25.64,0.603915
25.65,0.603866
25.66,0.603819
25.67,0.603776
25.68,0.603735
25.69,0.603696
25.7,0.60366
25.71,0.603625
25.72,0.603593
25.73,0.603562
25.74,0.603533
25.75,0.603505
25.76,0.603479
25.77,0.603454
25.78,0.603431
25.79,0.603408
25.8,0.603387
25.81,0.603367
25.82,0.603347
25.83,0.603329
25.84,0.603311
25.85,0.603294
25.86,0.603278
25.87,0.603263
25.88,0.603248
25.89,0.603234
25.9,0.60322
25.91,0.603207
25.92,0.603195
25.93,0.603183
25.94,0.603171
25.95,0.60316
25.96,0.60315
25.97,0.60314
25.98,0.60313
25.99,0.60312
26,0.603111
26.01,0.603102
26.02,0.603094
26.03,0.603086
26.04,0.603078
26.05,0.60307
26.06,0.603063
26.07,0.603056
26.08,0.603049
26.09,0.603042
26.1,0.603036
26.11,0.60303
26.12,0.603024
26.13,0.603018
26.14,0.603012
26.15,0.603007
26.16,0.603002
26.17,0.602996
26.18,0.602991
26.19,0.602987
26.2,0.602982
26.21,0.602977
26.22,0.602973
26.23,0.602969
26.24,0.602965
26.25,0.60296
26.26,0.602957
26.27,0.602953
26.28,0.602949
26.29,0.602945
26.3,0.602942
26.31,0.602938
26.32,0.602935
26.33,0.602932
26.34,0.602929
26.35,0.602926
26.36,0.602923
26.37,0.60292
26.38,0.602917
26.39,0.602914
26.4,0.602911
26.41,0.602909
26.42,0.602906
26.43,0.602904
26.44,0.602901
26.45,0.602899
26.46,0.602896
26.47,0.602894
26.48,0.602892
26.49,0.60289
26.5,0.602888
26.51,0.602885
26.52,0.602883
26.53,0.602881
26.54,0.602879
26.55,0.602878
26.56,0.602876
26.57,0.602874
26.58,0.602872
26.59,0.60287
26.6,0.602869
26.61,0.602867
26.62,0.602865
26.63,0.602864
26.64,0.602862
26.65,0.602861
26.66,0.602859
26.67,0.602858
26.68,0.602856
26.69,0.602855
26.7,0.602853
26.71,0.602852
26.72,0.602851
26.73,0.602849
26.74,0.602848
26.75,0.602847
26.76,0.602846
26.77,0.602844
26.78,0.602843
26.79,0.602842
26.8,0.602841
26.81,0.60284
26.82,0.602839
26.83,0.602838
26.84,0.602837
26.85,0.602835
26.86,0.602834
26.87,0.602833
26.88,0.602832
26.89,0.602831
26.9,0.602831
26.91,0.60283
26.92,0.602829
26.93,0.602828
26.94,0.602827
26.95,0.602826
26.96,0.602825
26.97,0.602824
26.98,0.602823
26.99,0.602823