File: mgb2/chen_2008/mg_1.0/xrd/curve_1_fit.dat
24.0,0.000160006
24.01,0.000162685
24.02,0.000165432
24.03,0.000168249
24.04,0.000171138
24.05,0.000174103
24.06,0.000177145
24.07,0.000180267
24.08,0.000183472
24.09,0.000186763
24.1,0.000190144
24.11,0.000193616
24.12,0.000197185
24.13,0.000200853
24.14,0.000204624
24.15,0.000208502
24.16,0.000212491
24.17,0.000216595
24.18,0.000220819
24.19,0.000225167
24.2,0.000229645
24.21,0.000234257
24.22,0.000239009
24.23,0.000243907
24.24,0.000248956
24.25,0.000254164
24.26,0.000259536
24.27,0.000265079
24.28,0.000270802
24.29,0.000276711
24.3,0.000282815
24.31,0.000289123
24.32,0.000295643
24.33,0.000302386
24.34,0.000309361
24.35,0.000316579
24.36,0.000324052
24.37,0.000331791
24.38,0.00033981
24.39,0.000348122
24.4,0.000356742
24.41,0.000365684
24.42,0.000374965
24.43,0.000384602
24.44,0.000394613
24.45,0.000405019
24.46,0.00041584
24.47,0.000427098
24.48,0.000438817
24.49,0.000451022
24.5,0.000463741
24.51,0.000477002
24.52,0.000490837
24.53,0.000505279
24.54,0.000520363
24.55,0.000536129
24.56,0.000552617
24.57,0.000569873
24.58,0.000587943
24.59,0.000606881
24.6,0.000626741
24.61,0.000647584
24.62,0.000669475
24.63,0.000692487
24.64,0.000716694
24.65,0.000742182
24.66,0.00076904
24.67,0.000797369
24.68,0.000827276
24.69,0.000858879
24.7,0.000892308
24.71,0.000927704
24.72,0.000965223
24.73,0.00100504
24.74,0.00104733
24.75,0.00109231
24.76,0.00114022
24.77,0.00119129
24.78,0.00124582
24.79,0.00130412
24.8,0.00136654
24.81,0.00143347
24.82,0.00150533
24.83,0.00158263
24.84,0.0016659
24.85,0.00175577
24.86,0.00185294
24.87,0.00195819
24.88,0.00207242
24.89,0.00219664
24.9,0.00233202
24.91,0.00247989
24.92,0.00264177
24.93,0.00281941
24.94,0.00301483
24.95,0.00323036
24.96,0.0034687
24.97,0.00373301
24.98,0.00402692
24.99,0.00435472
25,0.00472137
25.01,0.0051327
25.02,0.00559549
25.03,0.00611767
25.04,0.00670844
25.05,0.00737841
25.06,0.0081397
25.07,0.0090059
25.08,0.00999186
25.09,0.0111131
25.1,0.0123845
25.11,0.0138182
25.12,0.0154203
25.13,0.017185
25.14,0.0190874
25.15,0.0210746
25.16,0.0230575
25.17,0.0249074
25.18,0.026464
25.19,0.0275595
25.2,0.0280563
25.21,0.0278865
25.22,0.0270737
25.23,0.0257253
25.24,0.0239993
25.25,0.0220638
25.26,0.0200651
25.27,0.018112
25.28,0.0162746
25.29,0.0145903
25.3,0.0130733
25.31,0.0117228
25.32,0.010529
25.33,0.00947804
25.34,0.00855447
25.35,0.00774303
25.36,0.00702947
25.37,0.00640091
25.38,0.00584601
25.39,0.00535489
25.4,0.004919
25.41,0.00453102
25.42,0.00418466
25.43,0.00387455
25.44,0.00359608
25.45,0.0033453
25.46,0.00311884
25.47,0.00291378
25.48,0.00272761
25.49,0.00255817
25.5,0.00240357
25.51,0.00226218
25.52,0.00213259
25.53,0.00201355
25.54,0.00190398
25.55,0.00180291
25.56,0.00170953
25.57,0.00162307
25.58,0.00154288
25.59,0.00146839
25.6,0.00139908
25.61,0.00133448
25.62,0.00127419
25.63,0.00121784
25.64,0.00116509
25.65,0.00111565
25.66,0.00106925
25.67,0.00102565
25.68,0.000984633
25.69,0.000946001
25.7,0.000909575
25.71,0.00087519
25.72,0.0008427
25.73,0.000811969
25.74,0.000782873
25.75,0.0007553
25.76,0.000729146
25.77,0.000704315
25.78,0.000680722
25.79,0.000658285
25.8,0.000636931
25.81,0.000616593
25.82,0.000597206
25.83,0.000578713
25.84,0.00056106
25.85,0.000544198
25.86,0.00052808
25.87,0.000512663
25.88,0.000497908
25.89,0.000483777
25.9,0.000470236
25.91,0.000457252
25.92,0.000444796
25.93,0.00043284
25.94,0.000421357
25.95,0.000410322
25.96,0.000399714
25.97,0.00038951
25.98,0.000379689
25.99,0.000370234
26,0.000361127
26.01,0.00035235
26.02,0.000343887
26.03,0.000335725
26.04,0.000327849
26.05,0.000320246
26.06,0.000312903
26.07,0.000305809
26.08,0.000298953
26.09,0.000292324
26.1,0.000285912
26.11,0.000279708
26.12,0.000273703
26.13,0.000267889
26.14,0.000262258
26.15,0.000256802
26.16,0.000251514
26.17,0.000246387
26.18,0.000241415
26.19,0.000236591
26.2,0.000231911
26.21,0.000227367
26.22,0.000222955
26.23,0.00021867
26.24,0.000214507
26.25,0.000210462
26.26,0.00020653
26.27,0.000202706
26.28,0.000198988
26.29,0.000195371
26.3,0.000191851
26.31,0.000188425
26.32,0.00018509
26.33,0.000181843
26.34,0.00017868
26.35,0.000175599
26.36,0.000172596
26.37,0.00016967
26.38,0.000166818
26.39,0.000164036
26.4,0.000161324
26.41,0.000158678
26.42,0.000156097
26.43,0.000153577
26.44,0.000151119
26.45,0.000148719
26.46,0.000146375
26.47,0.000144086
26.48,0.000141851
26.49,0.000139667
26.5,0.000137533
26.51,0.000135447
26.52,0.000133409
26.53,0.000131416
26.54,0.000129467
26.55,0.000127561
26.56,0.000125697
26.57,0.000123874
26.58,0.00012209
26.59,0.000120344
26.6,0.000118635
26.61,0.000116962
26.62,0.000115324
26.63,0.000113721
26.64,0.000112151
26.65,0.000110612
26.66,0.000109106
26.67,0.000107629
26.68,0.000106183
26.69,0.000104765
26.7,0.000103376
26.71,0.000102014
26.72,0.000100679
26.73,9.93697e-05
26.74,9.80858e-05
26.75,9.68266e-05
26.76,9.55915e-05
26.77,9.43798e-05
26.78,9.3191e-05
26.79,9.20245e-05
26.8,9.08797e-05
26.81,8.97562e-05
26.82,8.86533e-05
26.83,8.75706e-05
26.84,8.65076e-05
26.85,8.54638e-05
26.86,8.44388e-05
26.87,8.34321e-05
26.88,8.24433e-05
26.89,8.14719e-05
26.9,8.05176e-05
26.91,7.95799e-05
26.92,7.86585e-05
26.93,7.7753e-05
26.94,7.6863e-05
26.95,7.59883e-05
26.96,7.51283e-05
26.97,7.42829e-05
26.98,7.34516e-05
26.99,7.26342e-05