File: mgb2/chen_2008/mg_1.0/xrd/xrd.csv
24.1661, 0.602796
24.4502, 0.603976
24.7343, 0.605157
24.9996, 0.608862
25.1041, 0.614733
25.2079, 0.631068
25.3026, 0.614489
25.4634, 0.608076
25.7761, 0.603084
26.0602, 0.603464
26.3443, 0.604245