File: mgb2/nagamatsu_2001/tc39/xrd/curve_1_fit.dat
24.0,0.000353279
24.01,0.00035884
24.02,0.000364533
24.03,0.000370362
24.04,0.000376332
24.05,0.000382448
24.06,0.000388713
24.07,0.000395134
24.08,0.000401714
24.09,0.000408461
24.1,0.000415378
24.11,0.000422472
24.12,0.000429749
24.13,0.000437215
24.14,0.000444878
24.15,0.000452743
24.16,0.000460818
24.17,0.000469111
24.18,0.000477629
24.19,0.000486381
24.2,0.000495375
24.21,0.00050462
24.22,0.000514126
24.23,0.000523903
24.24,0.000533961
24.25,0.00054431
24.26,0.000554963
24.27,0.00056593
24.28,0.000577225
24.29,0.000588861
24.3,0.000600852
24.31,0.000613211
24.32,0.000625955
24.33,0.000639099
24.34,0.000652661
24.35,0.000666657
24.36,0.000681108
24.37,0.000696032
24.38,0.00071145
24.39,0.000727385
24.4,0.00074386
24.41,0.000760899
24.42,0.000778528
24.43,0.000796775
24.44,0.000815669
24.45,0.000835241
24.46,0.000855523
24.47,0.00087655
24.48,0.00089836
24.49,0.00092099
24.5,0.000944483
24.51,0.000968883
24.52,0.000994236
24.53,0.00102059
24.54,0.00104801
24.55,0.00107654
24.56,0.00110624
24.57,0.00113719
24.58,0.00116945
24.59,0.00120309
24.6,0.0012382
24.61,0.00127486
24.62,0.00131316
24.63,0.0013532
24.64,0.0013951
24.65,0.00143895
24.66,0.0014849
24.67,0.00153306
24.68,0.0015836
24.69,0.00163665
24.7,0.0016924
24.71,0.00175103
24.72,0.00181273
24.73,0.00187772
24.74,0.00194625
24.75,0.00201856
24.76,0.00209494
24.77,0.0021757
24.78,0.00226118
24.79,0.00235174
24.8,0.0024478
24.81,0.0025498
24.82,0.00265823
24.83,0.00277365
24.84,0.00289666
24.85,0.00302792
24.86,0.00316819
24.87,0.0033183
24.88,0.00347916
24.89,0.00365182
24.9,0.00383745
24.91,0.00403734
24.92,0.00425296
24.93,0.00448598
24.94,0.00473828
24.95,0.00501199
24.96,0.00530955
24.97,0.00563373
24.98,0.0059877
24.99,0.00637513
25,0.00680021
25.01,0.00726782
25.02,0.00778358
25.03,0.00835405
25.04,0.00898689
25.05,0.00969104
25.06,0.010477
25.07,0.0113572
25.08,0.0123461
25.09,0.0134611
25.1,0.0147225
25.11,0.0161545
25.12,0.0177855
25.13,0.0196491
25.14,0.0217845
25.15,0.0242368
25.16,0.027057
25.17,0.0303008
25.18,0.0340253
25.19,0.0382827
25.2,0.0431089
25.21,0.0485043
25.22,0.0544058
25.23,0.0606496
25.24,0.0669347
25.25,0.0728026
25.26,0.077666
25.27,0.0809089
25.28,0.0820509
25.29,0.0809089
25.3,0.077666
25.31,0.0728026
25.32,0.0669347
25.33,0.0606496
25.34,0.0544058
25.35,0.0485043
25.36,0.0431089
25.37,0.0382827
25.38,0.0340253
25.39,0.0303008
25.4,0.027057
25.41,0.0242368
25.42,0.0217845
25.43,0.0196491
25.44,0.0177855
25.45,0.0161545
25.46,0.0147225
25.47,0.0134611
25.48,0.0123461
25.49,0.0113572
25.5,0.010477
25.51,0.00969104
25.52,0.00898689
25.53,0.00835405
25.54,0.00778358
25.55,0.00726782
25.56,0.00680021
25.57,0.00637513
25.58,0.0059877
25.59,0.00563373
25.6,0.00530955
25.61,0.00501199
25.62,0.00473828
25.63,0.00448598
25.64,0.00425296
25.65,0.00403734
25.66,0.00383745
25.67,0.00365182
25.68,0.00347916
25.69,0.0033183
25.7,0.00316819
25.71,0.00302792
25.72,0.00289666
25.73,0.00277365
25.74,0.00265823
25.75,0.0025498
25.76,0.0024478
25.77,0.00235174
25.78,0.00226118
25.79,0.0021757
25.8,0.00209494
25.81,0.00201856
25.82,0.00194625
25.83,0.00187772
25.84,0.00181273
25.85,0.00175103
25.86,0.0016924
25.87,0.00163665
25.88,0.0015836
25.89,0.00153306
25.9,0.0014849
25.91,0.00143895
25.92,0.0013951
25.93,0.0013532
25.94,0.00131316
25.95,0.00127486
25.96,0.0012382
25.97,0.00120309
25.98,0.00116945
25.99,0.00113719
26,0.00110624
26.01,0.00107654
26.02,0.00104801
26.03,0.00102059
26.04,0.000994236
26.05,0.000968883
26.06,0.000944483
26.07,0.00092099
26.08,0.00089836
26.09,0.00087655
26.1,0.000855523
26.11,0.000835241
26.12,0.000815669
26.13,0.000796775
26.14,0.000778528
26.15,0.000760899
26.16,0.00074386
26.17,0.000727385
26.18,0.00071145
26.19,0.000696032
26.2,0.000681108
26.21,0.000666657
26.22,0.000652661
26.23,0.000639099
26.24,0.000625955
26.25,0.000613211
26.26,0.000600852
26.27,0.000588861
26.28,0.000577225
26.29,0.00056593
26.3,0.000554963
26.31,0.00054431
26.32,0.000533961
26.33,0.000523903
26.34,0.000514126
26.35,0.00050462
26.36,0.000495375
26.37,0.000486381
26.38,0.000477629
26.39,0.000469111
26.4,0.000460818
26.41,0.000452743
26.42,0.000444878
26.43,0.000437215
26.44,0.000429749
26.45,0.000422472
26.46,0.000415378
26.47,0.000408461
26.48,0.000401714
26.49,0.000395134
26.5,0.000388713
26.51,0.000382448
26.52,0.000376332
26.53,0.000370362
26.54,0.000364533
26.55,0.00035884
26.56,0.000353279
26.57,0.000347846
26.58,0.000342537
26.59,0.000337349
26.6,0.000332278
26.61,0.00032732
26.62,0.000322472
26.63,0.000317731
26.64,0.000313093
26.65,0.000308556
26.66,0.000304117
26.67,0.000299773
26.68,0.000295521
26.69,0.000291359
26.7,0.000287284
26.71,0.000283294
26.72,0.000279386
26.73,0.000275559
26.74,0.00027181
26.75,0.000268136
26.76,0.000264536
26.77,0.000261009
26.78,0.000257551
26.79,0.000254162
26.8,0.000250839
26.81,0.00024758
26.82,0.000244385
26.83,0.000241251
26.84,0.000238177
26.85,0.000235161
26.86,0.000232202
26.87,0.000229299
26.88,0.000226449
26.89,0.000223653
26.9,0.000220908
26.91,0.000218213
26.92,0.000215567
26.93,0.000212968
26.94,0.000210417
26.95,0.000207911
26.96,0.000205449
26.97,0.000203031
26.98,0.000200655
26.99,0.000198321