File: mgb2/nagamatsu_2001/tc39/xrd/curve_total_fit.dat
24.0,0.0628533
24.01,0.0628588
24.02,0.0628645
24.03,0.0628704
24.04,0.0628763
24.05,0.0628824
24.06,0.0628887
24.07,0.0628951
24.08,0.0629017
24.09,0.0629085
24.1,0.0629154
24.11,0.0629225
24.12,0.0629297
24.13,0.0629372
24.14,0.0629449
24.15,0.0629527
24.16,0.0629608
24.17,0.0629691
24.18,0.0629776
24.19,0.0629864
24.2,0.0629954
24.21,0.0630046
24.22,0.0630141
24.23,0.0630239
24.24,0.063034
24.25,0.0630443
24.26,0.063055
24.27,0.0630659
24.28,0.0630772
24.29,0.0630889
24.3,0.0631009
24.31,0.0631132
24.32,0.063126
24.33,0.0631391
24.34,0.0631527
24.35,0.0631667
24.36,0.0631811
24.37,0.063196
24.38,0.0632114
24.39,0.0632274
24.4,0.0632439
24.41,0.0632609
24.42,0.0632785
24.43,0.0632968
24.44,0.0633157
24.45,0.0633352
24.46,0.0633555
24.47,0.0633766
24.48,0.0633984
24.49,0.063421
24.5,0.0634445
24.51,0.0634689
24.52,0.0634942
24.53,0.0635206
24.54,0.063548
24.55,0.0635765
24.56,0.0636062
24.57,0.0636372
24.58,0.0636694
24.59,0.0637031
24.6,0.0637382
24.61,0.0637749
24.62,0.0638132
24.63,0.0638532
24.64,0.0638951
24.65,0.063939
24.66,0.0639849
24.67,0.0640331
24.68,0.0640836
24.69,0.0641367
24.7,0.0641924
24.71,0.064251
24.72,0.0643127
24.73,0.0643777
24.74,0.0644462
24.75,0.0645186
24.76,0.0645949
24.77,0.0646757
24.78,0.0647612
24.79,0.0648517
24.8,0.0649478
24.81,0.0650498
24.82,0.0651582
24.83,0.0652737
24.84,0.0653967
24.85,0.0655279
24.86,0.0656682
24.87,0.0658183
24.88,0.0659792
24.89,0.0661518
24.9,0.0663374
24.91,0.0665373
24.92,0.066753
24.93,0.066986
24.94,0.0672383
24.95,0.067512
24.96,0.0678095
24.97,0.0681337
24.98,0.0684877
24.99,0.0688751
25,0.0693002
25.01,0.0697678
25.02,0.0702836
25.03,0.070854
25.04,0.0714869
25.05,0.072191
25.06,0.072977
25.07,0.0738572
25.08,0.0748461
25.09,0.0759611
25.1,0.0772225
25.11,0.0786545
25.12,0.0802855
25.13,0.0821491
25.14,0.0842845
25.15,0.0867368
25.16,0.089557
25.17,0.0928008
25.18,0.0965253
25.19,0.100783
25.2,0.105609
25.21,0.111004
25.22,0.116906
25.23,0.12315
25.24,0.129435
25.25,0.135303
25.26,0.140166
25.27,0.143409
25.28,0.144551
25.29,0.143409
25.3,0.140166
25.31,0.135303
25.32,0.129435
25.33,0.12315
25.34,0.116906
25.35,0.111004
25.36,0.105609
25.37,0.100783
25.38,0.0965253
25.39,0.0928008
25.4,0.089557
25.41,0.0867368
25.42,0.0842845
25.43,0.0821491
25.44,0.0802855
25.45,0.0786545
25.46,0.0772225
25.47,0.0759611
25.48,0.0748461
25.49,0.0738572
25.5,0.072977
25.51,0.072191
25.52,0.0714869
25.53,0.070854
25.54,0.0702836
25.55,0.0697678
25.56,0.0693002
25.57,0.0688751
25.58,0.0684877
25.59,0.0681337
25.6,0.0678095
25.61,0.067512
25.62,0.0672383
25.63,0.066986
25.64,0.066753
25.65,0.0665373
25.66,0.0663374
25.67,0.0661518
25.68,0.0659792
25.69,0.0658183
25.7,0.0656682
25.71,0.0655279
25.72,0.0653967
25.73,0.0652737
25.74,0.0651582
25.75,0.0650498
25.76,0.0649478
25.77,0.0648517
25.78,0.0647612
25.79,0.0646757
25.8,0.0645949
25.81,0.0645186
25.82,0.0644462
25.83,0.0643777
25.84,0.0643127
25.85,0.064251
25.86,0.0641924
25.87,0.0641367
25.88,0.0640836
25.89,0.0640331
25.9,0.0639849
25.91,0.063939
25.92,0.0638951
25.93,0.0638532
25.94,0.0638132
25.95,0.0637749
25.96,0.0637382
25.97,0.0637031
25.98,0.0636694
25.99,0.0636372
26,0.0636062
26.01,0.0635765
26.02,0.063548
26.03,0.0635206
26.04,0.0634942
26.05,0.0634689
26.06,0.0634445
26.07,0.063421
26.08,0.0633984
26.09,0.0633766
26.1,0.0633555
26.11,0.0633352
26.12,0.0633157
26.13,0.0632968
26.14,0.0632785
26.15,0.0632609
26.16,0.0632439
26.17,0.0632274
26.18,0.0632114
26.19,0.063196
26.2,0.0631811
26.21,0.0631667
26.22,0.0631527
26.23,0.0631391
26.24,0.063126
26.25,0.0631132
26.26,0.0631009
26.27,0.0630889
26.28,0.0630772
26.29,0.0630659
26.3,0.063055
26.31,0.0630443
26.32,0.063034
26.33,0.0630239
26.34,0.0630141
26.35,0.0630046
26.36,0.0629954
26.37,0.0629864
26.38,0.0629776
26.39,0.0629691
26.4,0.0629608
26.41,0.0629527
26.42,0.0629449
26.43,0.0629372
26.44,0.0629297
26.45,0.0629225
26.46,0.0629154
26.47,0.0629085
26.48,0.0629017
26.49,0.0628951
26.5,0.0628887
26.51,0.0628824
26.52,0.0628763
26.53,0.0628704
26.54,0.0628645
26.55,0.0628588
26.56,0.0628533
26.57,0.0628478
26.58,0.0628425
26.59,0.0628373
26.6,0.0628323
26.61,0.0628273
26.62,0.0628225
26.63,0.0628177
26.64,0.0628131
26.65,0.0628086
26.66,0.0628041
26.67,0.0627998
26.68,0.0627955
26.69,0.0627914
26.7,0.0627873
26.71,0.0627833
26.72,0.0627794
26.73,0.0627756
26.74,0.0627718
26.75,0.0627681
26.76,0.0627645
26.77,0.062761
26.78,0.0627576
26.79,0.0627542
26.8,0.0627508
26.81,0.0627476
26.82,0.0627444
26.83,0.0627413
26.84,0.0627382
26.85,0.0627352
26.86,0.0627322
26.87,0.0627293
26.88,0.0627264
26.89,0.0627237
26.9,0.0627209
26.91,0.0627182
26.92,0.0627156
26.93,0.062713
26.94,0.0627104
26.95,0.0627079
26.96,0.0627054
26.97,0.062703
26.98,0.0627007
26.99,0.0626983