File: mgb2/nagamatsu_2001/tc39/xrd/xrd.csv
24.2782, 0.0634991
24.9407, 0.0619459
25.1333, 0.0809852
25.2719, 0.14379
25.4672, 0.0811846
25.6612, 0.0649337
26.2011, 0.0633116
26.7009, 0.0621673
27.0335, 0.0658306