File: pb/bose_2007/18nm/xrd/curve_1_fit.dat
35.0,0.463279
35.01,0.470188
35.02,0.477251
35.03,0.484473
35.04,0.491859
35.05,0.499413
35.06,0.507141
35.07,0.515047
35.08,0.523138
35.09,0.531418
35.1,0.539895
35.11,0.548574
35.12,0.557461
35.13,0.566563
35.14,0.575888
35.15,0.585441
35.16,0.595232
35.17,0.605266
35.18,0.615554
35.19,0.626102
35.2,0.636921
35.21,0.648018
35.22,0.659404
35.23,0.671088
35.24,0.683081
35.25,0.695394
35.26,0.708037
35.27,0.721024
35.28,0.734365
35.29,0.748074
35.3,0.762164
35.31,0.77665
35.32,0.791545
35.33,0.806866
35.34,0.822627
35.35,0.838847
35.36,0.855543
35.37,0.872732
35.38,0.890435
35.39,0.908672
35.4,0.927463
35.41,0.946831
35.42,0.9668
35.43,0.987393
35.44,1.00864
35.45,1.03056
35.46,1.05319
35.47,1.07655
35.48,1.10068
35.49,1.12561
35.5,1.15138
35.51,1.17802
35.52,1.20557
35.53,1.23407
35.54,1.26356
35.55,1.2941
35.56,1.32572
35.57,1.35848
35.58,1.39243
35.59,1.42763
35.6,1.46414
35.61,1.50202
35.62,1.54133
35.63,1.58216
35.64,1.62457
35.65,1.66864
35.66,1.71446
35.67,1.76212
35.68,1.81171
35.69,1.86333
35.7,1.91709
35.71,1.9731
35.72,2.03149
35.73,2.09238
35.74,2.15592
35.75,2.22223
35.76,2.29149
35.77,2.36385
35.78,2.4395
35.79,2.51861
35.8,2.60139
35.81,2.68804
35.82,2.77881
35.83,2.87392
35.84,2.97363
35.85,3.07823
35.86,3.18799
35.87,3.30323
35.88,3.42428
35.89,3.55148
35.9,3.68523
35.91,3.82589
35.92,3.97391
35.93,4.12971
35.94,4.29377
35.95,4.46659
35.96,4.64867
35.97,4.84055
35.98,5.04281
35.99,5.25603
36,5.48081
36.01,5.71777
36.02,5.96752
36.03,6.2307
36.04,6.50791
36.05,6.79975
36.06,7.10678
36.07,7.42948
36.08,7.76827
36.09,8.12347
36.1,8.49524
36.11,8.88356
36.12,9.2882
36.13,9.70863
36.14,10.144
36.15,10.5931
36.16,11.0542
36.17,11.5251
36.18,12.0029
36.19,12.4844
36.2,12.9654
36.21,13.4411
36.22,13.9062
36.23,14.3546
36.24,14.78
36.25,15.1756
36.26,15.5343
36.27,15.8496
36.28,16.1149
36.29,16.3246
36.3,16.474
36.31,16.5597
36.32,16.5796
36.33,16.5333
36.34,16.4218
36.35,16.2477
36.36,16.0151
36.37,15.7291
36.38,15.3957
36.39,15.0214
36.4,14.6131
36.41,14.1776
36.42,13.7218
36.43,13.2517
36.44,12.7733
36.45,12.2916
36.46,11.8112
36.47,11.3357
36.48,10.8684
36.49,10.4119
36.5,9.96814
36.51,9.53861
36.52,9.12441
36.53,8.72626
36.54,8.34454
36.55,7.97941
36.56,7.6308
36.57,7.29849
36.58,6.98211
36.59,6.68122
36.6,6.3953
36.61,6.12378
36.62,5.86604
36.63,5.62148
36.64,5.38947
36.65,5.16939
36.66,4.96063
36.67,4.76259
36.68,4.57469
36.69,4.39638
36.7,4.22713
36.71,4.06643
36.72,3.91379
36.73,3.76877
36.74,3.63092
36.75,3.49984
36.76,3.37514
36.77,3.25645
36.78,3.14344
36.79,3.03579
36.8,2.93318
36.81,2.83534
36.82,2.742
36.83,2.6529
36.84,2.56782
36.85,2.48654
36.86,2.40883
36.87,2.33453
36.88,2.26343
36.89,2.19536
36.9,2.13018
36.91,2.06772
36.92,2.00784
36.93,1.95042
36.94,1.89532
36.95,1.84243
36.96,1.79163
36.97,1.74283
36.98,1.69592
36.99,1.65081
37,1.60741
37.01,1.56564
37.02,1.52543
37.03,1.4867
37.04,1.44937
37.05,1.4134
37.06,1.3787
37.07,1.34523
37.08,1.31294
37.09,1.28175
37.1,1.25164
37.11,1.22255
37.12,1.19443
37.13,1.16725
37.14,1.14097
37.15,1.11554
37.16,1.09093
37.17,1.06711
37.18,1.04405
37.19,1.02171
37.2,1.00006
37.21,0.979079
37.22,0.958739
37.23,0.939013
37.24,0.919879
37.25,0.901312
37.26,0.883291
37.27,0.865796
37.28,0.848806
37.29,0.832303
37.3,0.816269
37.31,0.800685
37.32,0.785537
37.33,0.770807
37.34,0.756481
37.35,0.742545
37.36,0.728985
37.37,0.715787
37.38,0.70294
37.39,0.69043
37.4,0.678246
37.41,0.666378
37.42,0.654814
37.43,0.643545
37.44,0.63256
37.45,0.621851
37.46,0.611408
37.47,0.601223
37.48,0.591287
37.49,0.581592
37.5,0.572131
37.51,0.562896
37.52,0.553881
37.53,0.545078
37.54,0.53648
37.55,0.528083
37.56,0.519879
37.57,0.511863
37.58,0.504029
37.59,0.496371
37.6,0.488885
37.61,0.481565
37.62,0.474407
37.63,0.467406
37.64,0.460557
37.65,0.453857
37.66,0.4473
37.67,0.440883
37.68,0.434601
37.69,0.428452
37.7,0.422432
37.71,0.416536
37.72,0.410762
37.73,0.405106
37.74,0.399565
37.75,0.394136
37.76,0.388816
37.77,0.383603
37.78,0.378492
37.79,0.373483
37.8,0.368571
37.81,0.363755
37.82,0.359032
37.83,0.3544
37.84,0.349856
37.85,0.345398
37.86,0.341025
37.87,0.336733
37.88,0.332522
37.89,0.328388
37.9,0.324331
37.91,0.320348
37.92,0.316437
37.93,0.312597
37.94,0.308826
37.95,0.305122
37.96,0.301484
37.97,0.297911
37.98,0.2944
37.99,0.290951
37.999,0.287898