File: pb/bose_2007/18nm/xrd/curve_total_fit.dat
35.0,359.063
35.01,359.07
35.02,359.077
35.03,359.084
35.04,359.092
35.05,359.099
35.06,359.107
35.07,359.115
35.08,359.123
35.09,359.131
35.1,359.14
35.11,359.149
35.12,359.157
35.13,359.167
35.14,359.176
35.15,359.185
35.16,359.195
35.17,359.205
35.18,359.216
35.19,359.226
35.2,359.237
35.21,359.248
35.22,359.259
35.23,359.271
35.24,359.283
35.25,359.295
35.26,359.308
35.27,359.321
35.28,359.334
35.29,359.348
35.3,359.362
35.31,359.377
35.32,359.392
35.33,359.407
35.34,359.423
35.35,359.439
35.36,359.456
35.37,359.473
35.38,359.49
35.39,359.509
35.4,359.527
35.41,359.547
35.42,359.567
35.43,359.587
35.44,359.609
35.45,359.631
35.46,359.653
35.47,359.677
35.48,359.701
35.49,359.726
35.5,359.751
35.51,359.778
35.52,359.806
35.53,359.834
35.54,359.864
35.55,359.894
35.56,359.926
35.57,359.958
35.58,359.992
35.59,360.028
35.6,360.064
35.61,360.102
35.62,360.141
35.63,360.182
35.64,360.225
35.65,360.269
35.66,360.314
35.67,360.362
35.68,360.412
35.69,360.463
35.7,360.517
35.71,360.573
35.72,360.631
35.73,360.692
35.74,360.756
35.75,360.822
35.76,360.891
35.77,360.964
35.78,361.039
35.79,361.119
35.8,361.201
35.81,361.288
35.82,361.379
35.83,361.474
35.84,361.574
35.85,361.678
35.86,361.788
35.87,361.903
35.88,362.024
35.89,362.151
35.9,362.285
35.91,362.426
35.92,362.574
35.93,362.73
35.94,362.894
35.95,363.067
35.96,363.249
35.97,363.441
35.98,363.643
35.99,363.856
36,364.081
36.01,364.318
36.02,364.568
36.03,364.831
36.04,365.108
36.05,365.4
36.06,365.707
36.07,366.029
36.08,366.368
36.09,366.723
36.1,367.095
36.11,367.484
36.12,367.888
36.13,368.309
36.14,368.744
36.15,369.193
36.16,369.654
36.17,370.125
36.18,370.603
36.19,371.084
36.2,371.565
36.21,372.041
36.22,372.506
36.23,372.955
36.24,373.38
36.25,373.776
36.26,374.134
36.27,374.45
36.28,374.715
36.29,374.925
36.3,375.074
36.31,375.16
36.32,375.18
36.33,375.133
36.34,375.022
36.35,374.848
36.36,374.615
36.37,374.329
36.38,373.996
36.39,373.621
36.4,373.213
36.41,372.778
36.42,372.322
36.43,371.852
36.44,371.373
36.45,370.892
36.46,370.411
36.47,369.936
36.48,369.468
36.49,369.012
36.5,368.568
36.51,368.139
36.52,367.724
36.53,367.326
36.54,366.945
36.55,366.579
36.56,366.231
36.57,365.898
36.58,365.582
36.59,365.281
36.6,364.995
36.61,364.724
36.62,364.466
36.63,364.221
36.64,363.989
36.65,363.769
36.66,363.561
36.67,363.363
36.68,363.175
36.69,362.996
36.7,362.827
36.71,362.666
36.72,362.514
36.73,362.369
36.74,362.231
36.75,362.1
36.76,361.975
36.77,361.856
36.78,361.743
36.79,361.636
36.8,361.533
36.81,361.435
36.82,361.342
36.83,361.253
36.84,361.168
36.85,361.087
36.86,361.009
36.87,360.935
36.88,360.863
36.89,360.795
36.9,360.73
36.91,360.668
36.92,360.608
36.93,360.55
36.94,360.495
36.95,360.442
36.96,360.392
36.97,360.343
36.98,360.296
36.99,360.251
37,360.207
37.01,360.166
37.02,360.125
37.03,360.087
37.04,360.049
37.05,360.013
37.06,359.979
37.07,359.945
37.08,359.913
37.09,359.882
37.1,359.852
37.11,359.823
37.12,359.794
37.13,359.767
37.14,359.741
37.15,359.716
37.16,359.691
37.17,359.667
37.18,359.644
37.19,359.622
37.2,359.6
37.21,359.579
37.22,359.559
37.23,359.539
37.24,359.52
37.25,359.501
37.26,359.483
37.27,359.466
37.28,359.449
37.29,359.432
37.3,359.416
37.31,359.401
37.32,359.386
37.33,359.371
37.34,359.356
37.35,359.343
37.36,359.329
37.37,359.316
37.38,359.303
37.39,359.29
37.4,359.278
37.41,359.266
37.42,359.255
37.43,359.244
37.44,359.233
37.45,359.222
37.46,359.211
37.47,359.201
37.48,359.191
37.49,359.182
37.5,359.172
37.51,359.163
37.52,359.154
37.53,359.145
37.54,359.136
37.55,359.128
37.56,359.12
37.57,359.112
37.58,359.104
37.59,359.096
37.6,359.089
37.61,359.082
37.62,359.074
37.63,359.067
37.64,359.061
37.65,359.054
37.66,359.047
37.67,359.041
37.68,359.035
37.69,359.028
37.7,359.022
37.71,359.017
37.72,359.011
37.73,359.005
37.74,359
37.75,358.994
37.76,358.989
37.77,358.984
37.78,358.978
37.79,358.973
37.8,358.969
37.81,358.964
37.82,358.959
37.83,358.954
37.84,358.95
37.85,358.945
37.86,358.941
37.87,358.937
37.88,358.933
37.89,358.928
37.9,358.924
37.91,358.92
37.92,358.916
37.93,358.913
37.94,358.909
37.95,358.905
37.96,358.901
37.97,358.898
37.98,358.894
37.99,358.891
37.999,358.888