File: mgb2/chen_2008/mg_1.5/xrd/curve_total_fit.dat
24.0,1.20389
24.01,1.20389
24.02,1.20389
24.03,1.2039
24.04,1.2039
24.05,1.2039
24.06,1.20391
24.07,1.20391
24.08,1.20392
24.09,1.20392
24.1,1.20392
24.11,1.20393
24.12,1.20393
24.13,1.20394
24.14,1.20394
24.15,1.20395
24.16,1.20395
24.17,1.20396
24.18,1.20396
24.19,1.20397
24.2,1.20397
24.21,1.20398
24.22,1.20398
24.23,1.20399
24.24,1.20399
24.25,1.204
24.26,1.20401
24.27,1.20401
24.28,1.20402
24.29,1.20403
24.3,1.20403
24.31,1.20404
24.32,1.20405
24.33,1.20406
24.34,1.20407
24.35,1.20407
24.36,1.20408
24.37,1.20409
24.38,1.2041
24.39,1.20411
24.4,1.20412
24.41,1.20413
24.42,1.20414
24.43,1.20416
24.44,1.20417
24.45,1.20418
24.46,1.20419
24.47,1.20421
24.48,1.20422
24.49,1.20424
24.5,1.20425
24.51,1.20427
24.52,1.20428
24.53,1.2043
24.54,1.20432
24.55,1.20434
24.56,1.20436
24.57,1.20438
24.58,1.2044
24.59,1.20442
24.6,1.20445
24.61,1.20447
24.62,1.2045
24.63,1.20453
24.64,1.20456
24.65,1.20459
24.66,1.20462
24.67,1.20466
24.68,1.20469
24.69,1.20473
24.7,1.20477
24.71,1.20482
24.72,1.20486
24.73,1.20491
24.74,1.20496
24.75,1.20502
24.76,1.20507
24.77,1.20514
24.78,1.2052
24.79,1.20528
24.8,1.20535
24.81,1.20543
24.82,1.20552
24.83,1.20562
24.84,1.20572
24.85,1.20583
24.86,1.20595
24.87,1.20608
24.88,1.20622
24.89,1.20637
24.9,1.20653
24.91,1.20671
24.92,1.20691
24.93,1.20712
24.94,1.20736
24.95,1.20762
24.96,1.20791
24.97,1.20822
24.98,1.20857
24.99,1.20896
25,1.20939
25.01,1.20987
25.02,1.2104
25.03,1.21099
25.04,1.21165
25.05,1.21239
25.06,1.2132
25.07,1.2141
25.08,1.21509
25.09,1.21617
25.1,1.21734
25.11,1.21859
25.12,1.21988
25.13,1.22119
25.14,1.22246
25.15,1.22362
25.16,1.22461
25.17,1.22534
25.18,1.22576
25.19,1.22582
25.2,1.22551
25.21,1.22487
25.22,1.22396
25.23,1.22284
25.24,1.2216
25.25,1.2203
25.26,1.219
25.27,1.21774
25.28,1.21654
25.29,1.21543
25.3,1.21441
25.31,1.21348
25.32,1.21264
25.33,1.21188
25.34,1.2112
25.35,1.21058
25.36,1.21003
25.37,1.20954
25.38,1.20909
25.39,1.20869
25.4,1.20833
25.41,1.20801
25.42,1.20771
25.43,1.20744
25.44,1.2072
25.45,1.20698
25.46,1.20677
25.47,1.20659
25.48,1.20642
25.49,1.20626
25.5,1.20612
25.51,1.20599
25.52,1.20587
25.53,1.20575
25.54,1.20565
25.55,1.20555
25.56,1.20546
25.57,1.20538
25.58,1.2053
25.59,1.20523
25.6,1.20516
25.61,1.20509
25.62,1.20503
25.63,1.20498
25.64,1.20493
25.65,1.20488
25.66,1.20483
25.67,1.20479
25.68,1.20474
25.69,1.2047
25.7,1.20467
25.71,1.20463
25.72,1.2046
25.73,1.20457
25.74,1.20454
25.75,1.20451
25.76,1.20448
25.77,1.20446
25.78,1.20443
25.79,1.20441
25.8,1.20439
25.81,1.20437
25.82,1.20435
25.83,1.20433
25.84,1.20431
25.85,1.20429
25.86,1.20427
25.87,1.20426
25.88,1.20424
25.89,1.20423
25.9,1.20421
25.91,1.2042
25.92,1.20419
25.93,1.20417
25.94,1.20416
25.95,1.20415
25.96,1.20414
25.97,1.20413
25.98,1.20412
25.99,1.20411
26,1.2041
26.01,1.20409
26.02,1.20408
26.03,1.20407
26.04,1.20406
26.05,1.20405
26.06,1.20404
26.07,1.20404
26.08,1.20403
26.09,1.20402
26.1,1.20402
26.11,1.20401
26.12,1.204
26.13,1.204
26.14,1.20399
26.15,1.20398
26.16,1.20398
26.17,1.20397
26.18,1.20397
26.19,1.20396
26.2,1.20396
26.21,1.20395
26.22,1.20395
26.23,1.20394
26.24,1.20394
26.25,1.20393
26.26,1.20393
26.27,1.20392
26.28,1.20392
26.29,1.20392
26.3,1.20391
26.31,1.20391
26.32,1.20391
26.33,1.2039
26.34,1.2039
26.35,1.2039
26.36,1.20389
26.37,1.20389
26.38,1.20389
26.39,1.20388
26.4,1.20388
26.41,1.20388
26.42,1.20387
26.43,1.20387
26.44,1.20387
26.45,1.20387
26.46,1.20386
26.47,1.20386
26.48,1.20386
26.49,1.20386
26.5,1.20385
26.51,1.20385
26.52,1.20385
26.53,1.20385
26.54,1.20384
26.55,1.20384
26.56,1.20384
26.57,1.20384
26.58,1.20384
26.59,1.20383
26.6,1.20383