File: mgb2/chen_2008/mg_1.5/xrd/curve_1_fit.dat
24.0,0.000187835
24.01,0.000191014
24.02,0.000194274
24.03,0.000197617
24.04,0.000201048
24.05,0.000204568
24.06,0.000208182
24.07,0.000211891
24.08,0.000215701
24.09,0.000219613
24.1,0.000223633
24.11,0.000227764
24.12,0.00023201
24.13,0.000236375
24.14,0.000240864
24.15,0.000245482
24.16,0.000250233
24.17,0.000255124
24.18,0.000260158
24.19,0.000265342
24.2,0.000270682
24.21,0.000276184
24.22,0.000281855
24.23,0.000287702
24.24,0.000293731
24.25,0.000299952
24.26,0.000306371
24.27,0.000312997
24.28,0.000319839
24.29,0.000326908
24.3,0.000334212
24.31,0.000341762
24.32,0.000349569
24.33,0.000357646
24.34,0.000366004
24.35,0.000374658
24.36,0.000383619
24.37,0.000392904
24.38,0.000402529
24.39,0.000412509
24.4,0.000422862
24.41,0.000433607
24.42,0.000444765
24.43,0.000456355
24.44,0.000468401
24.45,0.000480927
24.46,0.000493959
24.47,0.000507523
24.48,0.000521648
24.49,0.000536367
24.5,0.000551712
24.51,0.00056772
24.52,0.000584428
24.53,0.000601877
24.54,0.000620112
24.55,0.000639179
24.56,0.000659131
24.57,0.000680022
24.58,0.00070191
24.59,0.00072486
24.6,0.000748941
24.61,0.000774228
24.62,0.0008008
24.63,0.000828746
24.64,0.00085816
24.65,0.000889146
24.66,0.000921816
24.67,0.000956292
24.68,0.000992707
24.69,0.00103121
24.7,0.00107195
24.71,0.00111512
24.72,0.00116089
24.73,0.00120949
24.74,0.00126114
24.75,0.0013161
24.76,0.00137464
24.77,0.00143709
24.78,0.00150379
24.79,0.00157511
24.8,0.00165149
24.81,0.0017334
24.82,0.00182137
24.83,0.00191598
24.84,0.00201791
24.85,0.00212789
24.86,0.00224676
24.87,0.00237546
24.88,0.00251505
24.89,0.00266672
24.9,0.00283183
24.91,0.00301192
24.92,0.00320874
24.93,0.00342426
24.94,0.00366074
24.95,0.00392075
24.96,0.0042072
24.97,0.00452342
24.98,0.00487316
24.99,0.00526069
25,0.00569078
25.01,0.0061688
25.02,0.00670066
25.03,0.00729279
25.04,0.00795201
25.05,0.00868532
25.06,0.00949947
25.07,0.0104003
25.08,0.0113918
25.09,0.0124744
25.1,0.0136434
25.11,0.0148861
25.12,0.0161792
25.13,0.0174861
25.14,0.0187551
25.15,0.0199207
25.16,0.0209078
25.17,0.0216408
25.18,0.0220563
25.19,0.0221151
25.2,0.0218116
25.21,0.0211747
25.22,0.0202614
25.23,0.0191448
25.24,0.0179013
25.25,0.0166003
25.26,0.015298
25.27,0.0140359
25.28,0.0128414
25.29,0.0117301
25.3,0.0107092
25.31,0.00977953
25.32,0.00893807
25.33,0.00817946
25.34,0.00749717
25.35,0.00688422
25.36,0.00633371
25.37,0.00583904
25.38,0.00539414
25.39,0.00499347
25.4,0.00463206
25.41,0.0043055
25.42,0.00400985
25.43,0.00374167
25.44,0.00349792
25.45,0.00327592
25.46,0.00307331
25.47,0.00288804
25.48,0.00271829
25.49,0.00256245
25.5,0.00241912
25.51,0.00228704
25.52,0.00216512
25.53,0.00205237
25.54,0.00194794
25.55,0.00185105
25.56,0.00176101
25.57,0.00167721
25.58,0.00159911
25.59,0.00152621
25.6,0.00145806
25.61,0.00139429
25.62,0.00133452
25.63,0.00127844
25.64,0.00122576
25.65,0.00117621
25.66,0.00112955
25.67,0.00108556
25.68,0.00104406
25.69,0.00100486
25.7,0.000967787
25.71,0.000932702
25.72,0.000899465
25.73,0.00086795
25.74,0.000838042
25.75,0.000809635
25.76,0.00078263
25.77,0.00075694
25.78,0.000732479
25.79,0.000709173
25.8,0.00068695
25.81,0.000665745
25.82,0.000645498
25.83,0.000626152
25.84,0.000607654
25.85,0.000589957
25.86,0.000573016
25.87,0.000556787
25.88,0.000541233
25.89,0.000526316
25.9,0.000512003
25.91,0.000498262
25.92,0.000485063
25.93,0.000472377
25.94,0.000460179
25.95,0.000448445
25.96,0.00043715
25.97,0.000426275
25.98,0.000415797
25.99,0.000405699
26,0.000395962
26.01,0.00038657
26.02,0.000377506
26.03,0.000368755
26.04,0.000360303
26.05,0.000352137
26.06,0.000344245
26.07,0.000336613
26.08,0.000329231
26.09,0.000322088
26.1,0.000315174
26.11,0.000308479
26.12,0.000301994
26.13,0.000295711
26.14,0.000289621
26.15,0.000283716
26.16,0.000277989
26.17,0.000272434
26.18,0.000267042
26.19,0.000261809
26.2,0.000256727
26.21,0.000251791
26.22,0.000246996
26.23,0.000242335
26.24,0.000237805
26.25,0.000233401
26.26,0.000229117
26.27,0.00022495
26.28,0.000220895
26.29,0.000216948
26.3,0.000213106
26.31,0.000209364
26.32,0.00020572
26.33,0.00020217
26.34,0.000198711
26.35,0.00019534
26.36,0.000192053
26.37,0.000188849
26.38,0.000185724
26.39,0.000182675
26.4,0.000179701
26.41,0.000176798
26.42,0.000173966
26.43,0.0001712
26.44,0.0001685
26.45,0.000165863
26.46,0.000163287
26.47,0.000160771
26.48,0.000158312
26.49,0.000155909
26.5,0.000153561
26.51,0.000151265
26.52,0.000149019
26.53,0.000146824
26.54,0.000144676
26.55,0.000142575
26.56,0.00014052
26.57,0.000138508
26.58,0.00013654
26.59,0.000134612
26.6,0.000132726