File: mgb2/chen_2008/mg_1.5/xrd/xrd.csv
24.2608, 1.20331
24.5449, 1.20289
24.829, 1.20487
25.0184, 1.21126
25.1605, 1.22445
25.322, 1.21374
25.3973, 1.20643
25.6814, 1.20361
25.9655, 1.20439
26.2496, 1.20477
26.439, 1.20275