File: mgb2/chen_2008/mg_0.95/xrd/curve_1_fit.dat
24.0,0.000362072
24.01,0.000368575
24.02,0.000375254
24.03,0.000382114
24.04,0.000389163
24.05,0.000396407
24.06,0.000403853
24.07,0.00041151
24.08,0.000419385
24.09,0.000427486
24.1,0.000435822
24.11,0.000444402
24.12,0.000453236
24.13,0.000462334
24.14,0.000471706
24.15,0.000481363
24.16,0.000491316
24.17,0.000501579
24.18,0.000512164
24.19,0.000523083
24.2,0.000534352
24.21,0.000545985
24.22,0.000557998
24.23,0.000570407
24.24,0.000583231
24.25,0.000596486
24.26,0.000610193
24.27,0.000624373
24.28,0.000639046
24.29,0.000654235
24.3,0.000669966
24.31,0.000686263
24.32,0.000703154
24.33,0.000720667
24.34,0.000738833
24.35,0.000757685
24.36,0.000777256
24.37,0.000797583
24.38,0.000818705
24.39,0.000840663
24.4,0.000863501
24.41,0.000887266
24.42,0.000912008
24.43,0.00093778
24.44,0.000964638
24.45,0.000992644
24.46,0.00102186
24.47,0.00105236
24.48,0.00108422
24.49,0.00111751
24.5,0.00115232
24.51,0.00118874
24.52,0.00122688
24.53,0.00126683
24.54,0.00130872
24.55,0.00135265
24.56,0.00139878
24.57,0.00144723
24.58,0.00149816
24.59,0.00155175
24.6,0.00160816
24.61,0.00166759
24.62,0.00173027
24.63,0.0017964
24.64,0.00186625
24.65,0.00194009
24.66,0.0020182
24.67,0.00210091
24.68,0.00218857
24.69,0.00228155
24.7,0.00238027
24.71,0.00248519
24.72,0.00259679
24.73,0.00271561
24.74,0.00284225
24.75,0.00297735
24.76,0.00312162
24.77,0.00327582
24.78,0.00344079
24.79,0.00361746
24.8,0.00380682
24.81,0.00400997
24.82,0.0042281
24.83,0.00446249
24.84,0.00471453
24.85,0.00498572
24.86,0.00527764
24.87,0.005592
24.88,0.00593056
24.89,0.00629517
24.9,0.00668769
24.91,0.00710995
24.92,0.00756372
24.93,0.00805056
24.94,0.00857172
24.95,0.00912799
24.96,0.00971947
24.97,0.0103453
24.98,0.0110034
24.99,0.0116901
25,0.0123998
25.01,0.0131245
25.02,0.0138536
25.03,0.0145739
25.04,0.0152693
25.05,0.0159213
25.06,0.0165099
25.07,0.0170145
25.08,0.0174157
25.09,0.0176964
25.1,0.0178443
25.11,0.0178524
25.12,0.0177203
25.13,0.0174543
25.14,0.0170662
25.15,0.0165725
25.16,0.0159925
25.17,0.0153468
25.18,0.0146554
25.19,0.0139371
25.2,0.0132083
25.21,0.0124825
25.22,0.0117706
25.23,0.011081
25.24,0.0104193
25.25,0.00978967
25.26,0.00919419
25.27,0.00863386
25.28,0.00810869
25.29,0.00761796
25.3,0.00716047
25.31,0.00673467
25.32,0.00633883
25.33,0.00597111
25.34,0.00562964
25.35,0.0053126
25.36,0.00501818
25.37,0.00474469
25.38,0.00449053
25.39,0.00425419
25.4,0.00403426
25.41,0.00382945
25.42,0.00363855
25.43,0.00346048
25.44,0.00329421
25.45,0.00313882
25.46,0.00299345
25.47,0.00285734
25.48,0.00272976
25.49,0.00261007
25.5,0.00249766
25.51,0.00239201
25.52,0.0022926
25.53,0.00219898
25.54,0.00211073
25.55,0.00202747
25.56,0.00194884
25.57,0.00187453
25.58,0.00180424
25.59,0.00173769
25.6,0.00167463
25.61,0.00161483
25.62,0.00155808
25.63,0.00150418
25.64,0.00145295
25.65,0.00140422
25.66,0.00135784
25.67,0.00131366
25.68,0.00127155
25.69,0.00123138
25.7,0.00119304
25.71,0.00115642
25.72,0.00112143
25.73,0.00108797
25.74,0.00105595
25.75,0.0010253
25.76,0.000995939
25.77,0.000967797
25.78,0.00094081
25.79,0.000914916
25.8,0.000890059
25.81,0.000866184
25.82,0.000843242
25.83,0.000821185
25.84,0.000799969
25.85,0.000779553
25.86,0.000759897
25.87,0.000740964
25.88,0.000722721
25.89,0.000705135
25.9,0.000688174
25.91,0.00067181
25.92,0.000656015
25.93,0.000640765
25.94,0.000626033
25.95,0.000611798
25.96,0.000598038
25.97,0.000584732
25.98,0.00057186
25.99,0.000559404
26,0.000547346
26.01,0.00053567
26.02,0.00052436
26.03,0.000513401
26.04,0.000502779
26.05,0.00049248
26.06,0.000482491
26.07,0.000472801
26.08,0.000463397
26.09,0.000454268
26.1,0.000445404
26.11,0.000436796
26.12,0.000428432
26.13,0.000420304
26.14,0.000412404
26.15,0.000404722
26.16,0.000397252
26.17,0.000389985
26.18,0.000382914
26.19,0.000376033
26.2,0.000369334
26.21,0.000362811
26.22,0.000356458
26.23,0.00035027
26.24,0.00034424
26.25,0.000338364
26.26,0.000332636
26.27,0.000327052
26.28,0.000321606
26.29,0.000316294
26.3,0.000311111
26.31,0.000306055
26.32,0.00030112
26.33,0.000296303
26.34,0.0002916
26.35,0.000287007
26.36,0.000282521
26.37,0.000278139
26.38,0.000273858
26.39,0.000269675
26.4,0.000265586
26.41,0.000261589
26.42,0.000257681
26.43,0.000253859
26.44,0.000250122
26.45,0.000246466
26.46,0.000242889
26.47,0.00023939
26.48,0.000235965
26.49,0.000232612
26.5,0.000229331
26.51,0.000226118
26.52,0.000222971
26.53,0.00021989
26.54,0.000216872
26.55,0.000213915
26.56,0.000211018
26.57,0.00020818
26.58,0.000205398
26.59,0.000202671
26.6,0.000199998
26.61,0.000197377
26.62,0.000194808
26.63,0.000192288
26.64,0.000189816
26.65,0.000187392
26.66,0.000185013
26.67,0.00018268
26.68,0.00018039
26.69,0.000178143
26.7,0.000175937
26.71,0.000173772
26.72,0.000171646
26.73,0.00016956
26.74,0.00016751
26.75,0.000165498
26.76,0.000163522
26.77,0.000161581
26.78,0.000159673
26.79,0.0001578
26.8,0.000155959
26.81,0.00015415
26.82,0.000152372
26.83,0.000150625
26.84,0.000148908
26.85,0.000147219
26.86,0.00014556
26.87,0.000143928
26.88,0.000142323
26.89,0.000140745
26.9,0.000139192
26.91,0.000137666
26.92,0.000136164
26.93,0.000134687
26.94,0.000133233
26.95,0.000131803
26.96,0.000130396
26.97,0.000129011
26.98,0.000127648
26.99,0.000126306