File: mgb2/chen_2008/mg_0.95/xrd/curve_total_fit.dat
24.0,0.00436207
24.01,0.00436858
24.02,0.00437525
24.03,0.00438211
24.04,0.00438916
24.05,0.00439641
24.06,0.00440385
24.07,0.00441151
24.08,0.00441938
24.09,0.00442749
24.1,0.00443582
24.11,0.0044444
24.12,0.00445324
24.13,0.00446233
24.14,0.00447171
24.15,0.00448136
24.16,0.00449132
24.17,0.00450158
24.18,0.00451216
24.19,0.00452308
24.2,0.00453435
24.21,0.00454599
24.22,0.004558
24.23,0.00457041
24.24,0.00458323
24.25,0.00459649
24.26,0.00461019
24.27,0.00462437
24.28,0.00463905
24.29,0.00465424
24.3,0.00466997
24.31,0.00468626
24.32,0.00470315
24.33,0.00472067
24.34,0.00473883
24.35,0.00475768
24.36,0.00477726
24.37,0.00479758
24.38,0.0048187
24.39,0.00484066
24.4,0.0048635
24.41,0.00488727
24.42,0.00491201
24.43,0.00493778
24.44,0.00496464
24.45,0.00499264
24.46,0.00502186
24.47,0.00505236
24.48,0.00508422
24.49,0.00511751
24.5,0.00515232
24.51,0.00518874
24.52,0.00522688
24.53,0.00526683
24.54,0.00530872
24.55,0.00535265
24.56,0.00539878
24.57,0.00544723
24.58,0.00549816
24.59,0.00555175
24.6,0.00560816
24.61,0.00566759
24.62,0.00573027
24.63,0.0057964
24.64,0.00586625
24.65,0.00594009
24.66,0.0060182
24.67,0.00610091
24.68,0.00618857
24.69,0.00628155
24.7,0.00638027
24.71,0.00648519
24.72,0.00659679
24.73,0.00671561
24.74,0.00684225
24.75,0.00697735
24.76,0.00712162
24.77,0.00727582
24.78,0.00744079
24.79,0.00761746
24.8,0.00780682
24.81,0.00800997
24.82,0.0082281
24.83,0.00846249
24.84,0.00871453
24.85,0.00898572
24.86,0.00927764
24.87,0.009592
24.88,0.00993056
24.89,0.0102952
24.9,0.0106877
24.91,0.01111
24.92,0.0115637
24.93,0.0120506
24.94,0.0125717
24.95,0.013128
24.96,0.0137195
24.97,0.0143453
24.98,0.0150034
24.99,0.0156901
25,0.0163998
25.01,0.0171245
25.02,0.0178536
25.03,0.0185739
25.04,0.0192693
25.05,0.0199213
25.06,0.0205099
25.07,0.0210145
25.08,0.0214157
25.09,0.0216964
25.1,0.0218443
25.11,0.0218524
25.12,0.0217203
25.13,0.0214543
25.14,0.0210662
25.15,0.0205725
25.16,0.0199925
25.17,0.0193468
25.18,0.0186554
25.19,0.0179371
25.2,0.0172083
25.21,0.0164825
25.22,0.0157706
25.23,0.015081
25.24,0.0144193
25.25,0.0137897
25.26,0.0131942
25.27,0.0126339
25.28,0.0121087
25.29,0.011618
25.3,0.0111605
25.31,0.0107347
25.32,0.0103388
25.33,0.00997111
25.34,0.00962964
25.35,0.0093126
25.36,0.00901818
25.37,0.00874469
25.38,0.00849053
25.39,0.00825419
25.4,0.00803426
25.41,0.00782945
25.42,0.00763855
25.43,0.00746048
25.44,0.00729421
25.45,0.00713882
25.46,0.00699345
25.47,0.00685734
25.48,0.00672976
25.49,0.00661007
25.5,0.00649766
25.51,0.00639201
25.52,0.0062926
25.53,0.00619898
25.54,0.00611073
25.55,0.00602747
25.56,0.00594884
25.57,0.00587453
25.58,0.00580424
25.59,0.00573769
25.6,0.00567463
25.61,0.00561483
25.62,0.00555808
25.63,0.00550418
25.64,0.00545295
25.65,0.00540422
25.66,0.00535784
25.67,0.00531366
25.68,0.00527155
25.69,0.00523138
25.7,0.00519304
25.71,0.00515642
25.72,0.00512143
25.73,0.00508797
25.74,0.00505595
25.75,0.0050253
25.76,0.00499594
25.77,0.0049678
25.78,0.00494081
25.79,0.00491492
25.8,0.00489006
25.81,0.00486618
25.82,0.00484324
25.83,0.00482119
25.84,0.00479997
25.85,0.00477955
25.86,0.0047599
25.87,0.00474096
25.88,0.00472272
25.89,0.00470513
25.9,0.00468817
25.91,0.00467181
25.92,0.00465602
25.93,0.00464076
25.94,0.00462603
25.95,0.0046118
25.96,0.00459804
25.97,0.00458473
25.98,0.00457186
25.99,0.0045594
26,0.00454735
26.01,0.00453567
26.02,0.00452436
26.03,0.0045134
26.04,0.00450278
26.05,0.00449248
26.06,0.00448249
26.07,0.0044728
26.08,0.0044634
26.09,0.00445427
26.1,0.0044454
26.11,0.0044368
26.12,0.00442843
26.13,0.0044203
26.14,0.0044124
26.15,0.00440472
26.16,0.00439725
26.17,0.00438999
26.18,0.00438291
26.19,0.00437603
26.2,0.00436933
26.21,0.00436281
26.22,0.00435646
26.23,0.00435027
26.24,0.00434424
26.25,0.00433836
26.26,0.00433264
26.27,0.00432705
26.28,0.00432161
26.29,0.00431629
26.3,0.00431111
26.31,0.00430605
26.32,0.00430112
26.33,0.0042963
26.34,0.0042916
26.35,0.00428701
26.36,0.00428252
26.37,0.00427814
26.38,0.00427386
26.39,0.00426967
26.4,0.00426559
26.41,0.00426159
26.42,0.00425768
26.43,0.00425386
26.44,0.00425012
26.45,0.00424647
26.46,0.00424289
26.47,0.00423939
26.48,0.00423596
26.49,0.00423261
26.5,0.00422933
26.51,0.00422612
26.52,0.00422297
26.53,0.00421989
26.54,0.00421687
26.55,0.00421392
26.56,0.00421102
26.57,0.00420818
26.58,0.0042054
26.59,0.00420267
26.6,0.0042
26.61,0.00419738
26.62,0.00419481
26.63,0.00419229
26.64,0.00418982
26.65,0.00418739
26.66,0.00418501
26.67,0.00418268
26.68,0.00418039
26.69,0.00417814
26.7,0.00417594
26.71,0.00417377
26.72,0.00417165
26.73,0.00416956
26.74,0.00416751
26.75,0.0041655
26.76,0.00416352
26.77,0.00416158
26.78,0.00415967
26.79,0.0041578
26.8,0.00415596
26.81,0.00415415
26.82,0.00415237
26.83,0.00415063
26.84,0.00414891
26.85,0.00414722
26.86,0.00414556
26.87,0.00414393
26.88,0.00414232
26.89,0.00414074
26.9,0.00413919
26.91,0.00413767
26.92,0.00413616
26.93,0.00413469
26.94,0.00413323
26.95,0.0041318
26.96,0.0041304
26.97,0.00412901
26.98,0.00412765
26.99,0.00412631