File: mgb2/chen_2008/mg_0.95/xrd/xrd.csv
23.9767, 0.0042919
24.2608, 0.00507233
24.5449, 0.00425244
24.829, 0.00863357
25.1132, 0.0218164
25.3657, 0.00899638
25.492, 0.00618707
25.7761, 0.0049671
26.0602, 0.00494737
26.2496, 0.00613445