File: pb/bose_2007/7nm/xrd/curve_total_fit.dat
35.0,15.5638
35.01,15.572
35.02,15.5804
35.03,15.5889
35.04,15.5977
35.05,15.6066
35.06,15.6157
35.07,15.625
35.08,15.6345
35.09,15.6443
35.1,15.6542
35.11,15.6644
35.12,15.6749
35.13,15.6855
35.14,15.6964
35.15,15.7076
35.16,15.719
35.17,15.7307
35.18,15.7427
35.19,15.755
35.2,15.7675
35.21,15.7804
35.22,15.7936
35.23,15.8071
35.24,15.8209
35.25,15.8351
35.26,15.8497
35.27,15.8646
35.28,15.8799
35.29,15.8956
35.3,15.9118
35.31,15.9283
35.32,15.9453
35.33,15.9627
35.34,15.9806
35.35,15.999
35.36,16.0178
35.37,16.0372
35.38,16.0571
35.39,16.0776
35.4,16.0987
35.41,16.1203
35.42,16.1426
35.43,16.1655
35.44,16.1891
35.45,16.2133
35.46,16.2383
35.47,16.264
35.48,16.2904
35.49,16.3177
35.5,16.3457
35.51,16.3747
35.52,16.4045
35.53,16.4352
35.54,16.4669
35.55,16.4996
35.56,16.5333
35.57,16.5681
35.58,16.604
35.59,16.641
35.6,16.6793
35.61,16.7188
35.62,16.7596
35.63,16.8018
35.64,16.8453
35.65,16.8904
35.66,16.9369
35.67,16.9851
35.68,17.0348
35.69,17.0863
35.7,17.1396
35.71,17.1947
35.72,17.2517
35.73,17.3108
35.74,17.3719
35.75,17.4352
35.76,17.5008
35.77,17.5686
35.78,17.639
35.79,17.7118
35.8,17.7873
35.81,17.8654
35.82,17.9464
35.83,18.0303
35.84,18.1173
35.85,18.2073
35.86,18.3006
35.87,18.3973
35.88,18.4973
35.89,18.601
35.9,18.7082
35.91,18.8193
35.92,18.9341
35.93,19.0529
35.94,19.1756
35.95,19.3024
35.96,19.4333
35.97,19.5684
35.98,19.7076
35.99,19.851
36,19.9985
36.01,20.1501
36.02,20.3056
36.03,20.4651
36.04,20.6282
36.05,20.7948
36.06,20.9646
36.07,21.1374
36.08,21.3126
36.09,21.49
36.1,21.6689
36.11,21.8488
36.12,22.029
36.13,22.2088
36.14,22.3874
36.15,22.5639
36.16,22.7373
36.17,22.9067
36.18,23.071
36.19,23.2289
36.2,23.3795
36.21,23.5215
36.22,23.6538
36.23,23.7752
36.24,23.8847
36.25,23.9812
36.26,24.0637
36.27,24.1315
36.28,24.1838
36.29,24.2201
36.3,24.2401
36.31,24.2434
36.32,24.2301
36.33,24.2003
36.34,24.1543
36.35,24.0926
36.36,24.0159
36.37,23.9249
36.38,23.8205
36.39,23.7038
36.4,23.5757
36.41,23.4374
36.42,23.2901
36.43,23.135
36.44,22.9731
36.45,22.8056
36.46,22.6337
36.47,22.4583
36.48,22.2804
36.49,22.101
36.5,21.9208
36.51,21.7407
36.52,21.5614
36.53,21.3833
36.54,21.2072
36.55,21.0334
36.56,20.8624
36.57,20.6944
36.58,20.5299
36.59,20.3689
36.6,20.2118
36.61,20.0586
36.62,19.9095
36.63,19.7644
36.64,19.6236
36.65,19.4868
36.66,19.3543
36.67,19.2258
36.68,19.1015
36.69,18.9811
36.7,18.8647
36.71,18.7522
36.72,18.6434
36.73,18.5384
36.74,18.4369
36.75,18.3389
36.76,18.2443
36.77,18.1529
36.78,18.0647
36.79,17.9796
36.8,17.8975
36.81,17.8182
36.82,17.7417
36.83,17.6678
36.84,17.5965
36.85,17.5276
36.86,17.4612
36.87,17.397
36.88,17.335
36.89,17.2751
36.9,17.2173
36.91,17.1614
36.92,17.1074
36.93,17.0552
36.94,17.0048
36.95,16.956
36.96,16.9088
36.97,16.8632
36.98,16.819
36.99,16.7763
37,16.735
37.01,16.695
37.02,16.6562
37.03,16.6187
37.04,16.5823
37.05,16.5471
37.06,16.513
37.07,16.4799
37.08,16.4478
37.09,16.4167
37.1,16.3865
37.11,16.3572
37.12,16.3288
37.13,16.3012
37.14,16.2744
37.15,16.2484
37.16,16.2232
37.17,16.1987
37.18,16.1748
37.19,16.1517
37.2,16.1292
37.21,16.1073
37.22,16.086
37.23,16.0653
37.24,16.0451
37.25,16.0255
37.26,16.0064
37.27,15.9879
37.28,15.9698
37.29,15.9522
37.3,15.935
37.31,15.9183
37.32,15.902
37.33,15.8862
37.34,15.8707
37.35,15.8556
37.36,15.8409
37.37,15.8266
37.38,15.8126
37.39,15.799
37.4,15.7856
37.41,15.7726
37.42,15.76
37.43,15.7476
37.44,15.7355
37.45,15.7237
37.46,15.7121
37.47,15.7009
37.48,15.6899
37.49,15.6791
37.5,15.6686
37.51,15.6583
37.52,15.6482
37.53,15.6384
37.54,15.6288
37.55,15.6194
37.56,15.6102
37.57,15.6012
37.58,15.5924
37.59,15.5838
37.6,15.5753
37.61,15.5671
37.62,15.559
37.63,15.5511
37.64,15.5433
37.65,15.5357
37.66,15.5283
37.67,15.521
37.68,15.5139
37.69,15.5069
37.7,15.5
37.71,15.4933
37.72,15.4867
37.73,15.4802
37.74,15.4739
37.75,15.4677
37.76,15.4616
37.77,15.4556
37.78,15.4497
37.79,15.444
37.8,15.4383
37.81,15.4328
37.82,15.4274
37.83,15.422
37.84,15.4168
37.85,15.4116
37.86,15.4066
37.87,15.4016
37.88,15.3968
37.89,15.392
37.9,15.3873
37.91,15.3827
37.92,15.3781
37.93,15.3737
37.94,15.3693
37.95,15.365
37.96,15.3607
37.97,15.3566
37.98,15.3525
37.99,15.3485
37.999,15.3449