File: pb/bose_2007/7nm/xrd/curve_1_fit.dat
35.0,0.563836
35.01,0.572024
35.02,0.580387
35.03,0.588931
35.04,0.597661
35.05,0.606582
35.06,0.615699
35.07,0.625018
35.08,0.634545
35.09,0.644286
35.1,0.654248
35.11,0.664436
35.12,0.674857
35.13,0.685519
35.14,0.696429
35.15,0.707594
35.16,0.719022
35.17,0.730722
35.18,0.7427
35.19,0.754967
35.2,0.767531
35.21,0.780401
35.22,0.793588
35.23,0.807101
35.24,0.82095
35.25,0.835147
35.26,0.849703
35.27,0.86463
35.28,0.879939
35.29,0.895644
35.3,0.911757
35.31,0.928293
35.32,0.945266
35.33,0.962689
35.34,0.98058
35.35,0.998954
35.36,1.01783
35.37,1.03722
35.38,1.05714
35.39,1.07762
35.4,1.09868
35.41,1.12033
35.42,1.14259
35.43,1.16549
35.44,1.18905
35.45,1.2133
35.46,1.23826
35.47,1.26395
35.48,1.29041
35.49,1.31766
35.5,1.34574
35.51,1.37467
35.52,1.40448
35.53,1.43522
35.54,1.46691
35.55,1.49959
35.56,1.53331
35.57,1.56809
35.58,1.60399
35.59,1.64105
35.6,1.6793
35.61,1.71881
35.62,1.75962
35.63,1.80178
35.64,1.84535
35.65,1.89037
35.66,1.93692
35.67,1.98505
35.68,2.03483
35.69,2.08631
35.7,2.13958
35.71,2.1947
35.72,2.25174
35.73,2.31079
35.74,2.37192
35.75,2.43521
35.76,2.50076
35.77,2.56864
35.78,2.63896
35.79,2.7118
35.8,2.78725
35.81,2.86543
35.82,2.94642
35.83,3.03033
35.84,3.11727
35.85,3.20733
35.86,3.30063
35.87,3.39727
35.88,3.49735
35.89,3.60097
35.9,3.70824
35.91,3.81925
35.92,3.9341
35.93,4.05286
35.94,4.1756
35.95,4.30241
35.96,4.43332
35.97,4.56838
35.98,4.70759
35.99,4.85097
36,4.99848
36.01,5.15006
36.02,5.30563
36.03,5.46506
36.04,5.62819
36.05,5.7948
36.06,5.96463
36.07,6.13737
36.08,6.31262
36.09,6.48996
36.1,6.66886
36.11,6.84876
36.12,7.02897
36.13,7.20879
36.14,7.38738
36.15,7.56388
36.16,7.73733
36.17,7.90672
36.18,8.07096
36.19,8.22895
36.2,8.37953
36.21,8.52155
36.22,8.65383
36.23,8.77525
36.24,8.8847
36.25,8.98117
36.26,9.0637
36.27,9.13148
36.28,9.1838
36.29,9.22013
36.3,9.24006
36.31,9.24339
36.32,9.23008
36.33,9.20028
36.34,9.1543
36.35,9.09262
36.36,9.0159
36.37,8.9249
36.38,8.82052
36.39,8.70377
36.4,8.57569
36.41,8.43743
36.42,8.29014
36.43,8.13497
36.44,7.97309
36.45,7.80563
36.46,7.63369
36.47,7.45829
36.48,7.28042
36.49,7.10099
36.5,6.92084
36.51,6.74074
36.52,6.56136
36.53,6.38333
36.54,6.20719
36.55,6.0334
36.56,5.86236
36.57,5.69443
36.58,5.52988
36.59,5.36895
36.6,5.21182
36.61,5.05863
36.62,4.90948
36.63,4.76444
36.64,4.62356
36.65,4.48684
36.66,4.35428
36.67,4.22584
36.68,4.10147
36.69,3.98113
36.7,3.86473
36.71,3.75219
36.72,3.64344
36.73,3.53837
36.74,3.43688
36.75,3.33888
36.76,3.24426
36.77,3.15291
36.78,3.06474
36.79,2.97963
36.8,2.89748
36.81,2.81819
36.82,2.74166
36.83,2.66778
36.84,2.59647
36.85,2.52763
36.86,2.46116
36.87,2.39697
36.88,2.33499
36.89,2.27512
36.9,2.21728
36.91,2.1614
36.92,2.1074
36.93,2.05521
36.94,2.00476
36.95,1.95598
36.96,1.90881
36.97,1.86318
36.98,1.81904
36.99,1.77632
37,1.73498
37.01,1.69496
37.02,1.6562
37.03,1.61867
37.04,1.58232
37.05,1.54709
37.06,1.51295
37.07,1.47986
37.08,1.44778
37.09,1.41666
37.1,1.38649
37.11,1.35721
37.12,1.32879
37.13,1.30122
37.14,1.27444
37.15,1.24845
37.16,1.2232
37.17,1.19867
37.18,1.17483
37.19,1.15167
37.2,1.12916
37.21,1.10726
37.22,1.08598
37.23,1.06527
37.24,1.04512
37.25,1.02552
37.26,1.00644
37.27,0.987871
37.28,0.969789
37.29,0.95218
37.3,0.935029
37.31,0.91832
37.32,0.902039
37.33,0.886173
37.34,0.870707
37.35,0.855628
37.36,0.840926
37.37,0.826586
37.38,0.812599
37.39,0.798953
37.4,0.785637
37.41,0.772642
37.42,0.759956
37.43,0.747572
37.44,0.735479
37.45,0.723669
37.46,0.712134
37.47,0.700864
37.48,0.689853
37.49,0.679093
37.5,0.668576
37.51,0.658295
37.52,0.648244
37.53,0.638416
37.54,0.628804
37.55,0.619402
37.56,0.610205
37.57,0.601206
37.58,0.592401
37.59,0.583783
37.6,0.575348
37.61,0.56709
37.62,0.559005
37.63,0.551089
37.64,0.543335
37.65,0.535741
37.66,0.528302
37.67,0.521014
37.68,0.513873
37.69,0.506874
37.7,0.500015
37.71,0.493292
37.72,0.4867
37.73,0.480238
37.74,0.473901
37.75,0.467687
37.76,0.461592
37.77,0.455613
37.78,0.449748
37.79,0.443993
37.8,0.438347
37.81,0.432805
37.82,0.427367
37.83,0.422028
37.84,0.416788
37.85,0.411643
37.86,0.406591
37.87,0.40163
37.88,0.396759
37.89,0.391973
37.9,0.387273
37.91,0.382656
37.92,0.378119
37.93,0.373662
37.94,0.369282
37.95,0.364977
37.96,0.360747
37.97,0.356588
37.98,0.3525
37.99,0.348481
37.999,0.344921