File: pb/bose_2007/11nm/xrd/curve_1_fit.dat
35.0,0.165767
35.01,0.168143
35.02,0.17057
35.03,0.173049
35.04,0.175584
35.05,0.178174
35.06,0.180821
35.07,0.183528
35.08,0.186296
35.09,0.189127
35.1,0.192023
35.11,0.194986
35.12,0.198017
35.13,0.20112
35.14,0.204296
35.15,0.207547
35.16,0.210876
35.17,0.214286
35.18,0.217779
35.19,0.221358
35.2,0.225025
35.21,0.228784
35.22,0.232638
35.23,0.23659
35.24,0.240642
35.25,0.2448
35.26,0.249065
35.27,0.253443
35.28,0.257936
35.29,0.26255
35.3,0.267288
35.31,0.272155
35.32,0.277156
35.33,0.282295
35.34,0.287578
35.35,0.293009
35.36,0.298596
35.37,0.304343
35.38,0.310256
35.39,0.316343
35.4,0.32261
35.41,0.329064
35.42,0.335713
35.43,0.342564
35.44,0.349626
35.45,0.356907
35.46,0.364417
35.47,0.372165
35.48,0.380161
35.49,0.388417
35.5,0.396942
35.51,0.40575
35.52,0.414852
35.53,0.424262
35.54,0.433993
35.55,0.444061
35.56,0.454481
35.57,0.465269
35.58,0.476444
35.59,0.488022
35.6,0.500025
35.61,0.512472
35.62,0.525387
35.63,0.538791
35.64,0.552711
35.65,0.567172
35.66,0.582203
35.67,0.597834
35.68,0.614098
35.69,0.631027
35.7,0.648659
35.71,0.667033
35.72,0.68619
35.73,0.706175
35.74,0.727036
35.75,0.748825
35.76,0.771596
35.77,0.795408
35.78,0.820325
35.79,0.846417
35.8,0.873755
35.81,0.902421
35.82,0.9325
35.83,0.964085
35.84,0.997277
35.85,1.03218
35.86,1.06892
35.87,1.10763
35.88,1.14843
35.89,1.19149
35.9,1.23697
35.91,1.28504
35.92,1.33592
35.93,1.3898
35.94,1.44694
35.95,1.50758
35.96,1.57202
35.97,1.64057
35.98,1.71357
35.99,1.79141
36,1.8745
36.01,1.96333
36.02,2.05839
36.03,2.16028
36.04,2.26963
36.05,2.38715
36.06,2.51363
36.07,2.64998
36.08,2.79717
36.09,2.95633
36.1,3.12871
36.11,3.31569
36.12,3.51887
36.13,3.74
36.14,3.98109
36.15,4.24436
36.16,4.53233
36.17,4.84782
36.18,5.19398
36.19,5.57432
36.2,5.99275
36.21,6.45355
36.22,6.96137
36.23,7.52122
36.24,8.13832
36.25,8.81796
36.26,9.56524
36.27,10.3846
36.28,11.2792
36.29,12.2501
36.3,13.2949
36.31,14.4067
36.32,15.5718
36.33,16.7684
36.34,17.9648
36.35,19.1191
36.36,20.1799
36.37,21.0901
36.38,21.7921
36.39,22.2362
36.4,22.3883
36.41,22.2362
36.42,21.7921
36.43,21.0901
36.44,20.1799
36.45,19.1191
36.46,17.9648
36.47,16.7684
36.48,15.5718
36.49,14.4067
36.5,13.2949
36.51,12.2501
36.52,11.2792
36.53,10.3846
36.54,9.56524
36.55,8.81796
36.56,8.13832
36.57,7.52122
36.58,6.96137
36.59,6.45355
36.6,5.99275
36.61,5.57432
36.62,5.19398
36.63,4.84782
36.64,4.53233
36.65,4.24436
36.66,3.98109
36.67,3.74
36.68,3.51887
36.69,3.31569
36.7,3.12871
36.71,2.95633
36.72,2.79717
36.73,2.64998
36.74,2.51363
36.75,2.38715
36.76,2.26963
36.77,2.16028
36.78,2.05839
36.79,1.96333
36.8,1.8745
36.81,1.79141
36.82,1.71357
36.83,1.64057
36.84,1.57202
36.85,1.50758
36.86,1.44694
36.87,1.3898
36.88,1.33592
36.89,1.28504
36.9,1.23697
36.91,1.19149
36.92,1.14843
36.93,1.10763
36.94,1.06892
36.95,1.03218
36.96,0.997277
36.97,0.964085
36.98,0.9325
36.99,0.902421
37,0.873755
37.01,0.846417
37.02,0.820325
37.03,0.795408
37.04,0.771596
37.05,0.748825
37.06,0.727036
37.07,0.706175
37.08,0.68619
37.09,0.667033
37.1,0.648659
37.11,0.631027
37.12,0.614098
37.13,0.597834
37.14,0.582203
37.15,0.567172
37.16,0.552711
37.17,0.538791
37.18,0.525387
37.19,0.512472
37.2,0.500025
37.21,0.488022
37.22,0.476444
37.23,0.465269
37.24,0.454481
37.25,0.444061
37.26,0.433993
37.27,0.424262
37.28,0.414852
37.29,0.40575
37.3,0.396942
37.31,0.388417
37.32,0.380161
37.33,0.372165
37.34,0.364417
37.35,0.356907
37.36,0.349626
37.37,0.342564
37.38,0.335713
37.39,0.329064
37.4,0.32261
37.41,0.316343
37.42,0.310256
37.43,0.304343
37.44,0.298596
37.45,0.293009
37.46,0.287578
37.47,0.282295
37.48,0.277156
37.49,0.272155
37.5,0.267288
37.51,0.26255
37.52,0.257936
37.53,0.253443
37.54,0.249065
37.55,0.2448
37.56,0.240642
37.57,0.23659
37.58,0.232638
37.59,0.228784
37.6,0.225025
37.61,0.221358
37.62,0.217779
37.63,0.214286
37.64,0.210876
37.65,0.207547
37.66,0.204296
37.67,0.20112
37.68,0.198017
37.69,0.194986
37.7,0.192023
37.71,0.189127
37.72,0.186296
37.73,0.183528
37.74,0.180821
37.75,0.178174
37.76,0.175584
37.77,0.173049
37.78,0.17057
37.79,0.168143
37.8,0.165767
37.81,0.163441
37.82,0.161164
37.83,0.158933
37.84,0.156749
37.85,0.154609
37.86,0.152513
37.87,0.150459
37.88,0.148446
37.89,0.146473
37.9,0.144539
37.91,0.142643
37.92,0.140784
37.93,0.138961
37.94,0.137174
37.95,0.13542
37.96,0.1337
37.97,0.132012
37.98,0.130356
37.99,0.128731
37.999,0.127294