File: pb/bose_2007/11nm/xrd/curve_total_fit.dat
35.0,138.166
35.01,138.168
35.02,138.171
35.03,138.173
35.04,138.176
35.05,138.178
35.06,138.181
35.07,138.184
35.08,138.186
35.09,138.189
35.1,138.192
35.11,138.195
35.12,138.198
35.13,138.201
35.14,138.204
35.15,138.208
35.16,138.211
35.17,138.214
35.18,138.218
35.19,138.221
35.2,138.225
35.21,138.229
35.22,138.233
35.23,138.237
35.24,138.241
35.25,138.245
35.26,138.249
35.27,138.253
35.28,138.258
35.29,138.263
35.3,138.267
35.31,138.272
35.32,138.277
35.33,138.282
35.34,138.288
35.35,138.293
35.36,138.299
35.37,138.304
35.38,138.31
35.39,138.316
35.4,138.323
35.41,138.329
35.42,138.336
35.43,138.343
35.44,138.35
35.45,138.357
35.46,138.364
35.47,138.372
35.48,138.38
35.49,138.388
35.5,138.397
35.51,138.406
35.52,138.415
35.53,138.424
35.54,138.434
35.55,138.444
35.56,138.454
35.57,138.465
35.58,138.476
35.59,138.488
35.6,138.5
35.61,138.512
35.62,138.525
35.63,138.539
35.64,138.553
35.65,138.567
35.66,138.582
35.67,138.598
35.68,138.614
35.69,138.631
35.7,138.649
35.71,138.667
35.72,138.686
35.73,138.706
35.74,138.727
35.75,138.749
35.76,138.772
35.77,138.795
35.78,138.82
35.79,138.846
35.8,138.874
35.81,138.902
35.82,138.933
35.83,138.964
35.84,138.997
35.85,139.032
35.86,139.069
35.87,139.108
35.88,139.148
35.89,139.191
35.9,139.237
35.91,139.285
35.92,139.336
35.93,139.39
35.94,139.447
35.95,139.508
35.96,139.572
35.97,139.641
35.98,139.714
35.99,139.791
36,139.875
36.01,139.963
36.02,140.058
36.03,140.16
36.04,140.27
36.05,140.387
36.06,140.514
36.07,140.65
36.08,140.797
36.09,140.956
36.1,141.129
36.11,141.316
36.12,141.519
36.13,141.74
36.14,141.981
36.15,142.244
36.16,142.532
36.17,142.848
36.18,143.194
36.19,143.574
36.2,143.993
36.21,144.454
36.22,144.961
36.23,145.521
36.24,146.138
36.25,146.818
36.26,147.565
36.27,148.385
36.28,149.279
36.29,150.25
36.3,151.295
36.31,152.407
36.32,153.572
36.33,154.768
36.34,155.965
36.35,157.119
36.36,158.18
36.37,159.09
36.38,159.792
36.39,160.236
36.4,160.388
36.41,160.236
36.42,159.792
36.43,159.09
36.44,158.18
36.45,157.119
36.46,155.965
36.47,154.768
36.48,153.572
36.49,152.407
36.5,151.295
36.51,150.25
36.52,149.279
36.53,148.385
36.54,147.565
36.55,146.818
36.56,146.138
36.57,145.521
36.58,144.961
36.59,144.454
36.6,143.993
36.61,143.574
36.62,143.194
36.63,142.848
36.64,142.532
36.65,142.244
36.66,141.981
36.67,141.74
36.68,141.519
36.69,141.316
36.7,141.129
36.71,140.956
36.72,140.797
36.73,140.65
36.74,140.514
36.75,140.387
36.76,140.27
36.77,140.16
36.78,140.058
36.79,139.963
36.8,139.875
36.81,139.791
36.82,139.714
36.83,139.641
36.84,139.572
36.85,139.508
36.86,139.447
36.87,139.39
36.88,139.336
36.89,139.285
36.9,139.237
36.91,139.191
36.92,139.148
36.93,139.108
36.94,139.069
36.95,139.032
36.96,138.997
36.97,138.964
36.98,138.933
36.99,138.902
37,138.874
37.01,138.846
37.02,138.82
37.03,138.795
37.04,138.772
37.05,138.749
37.06,138.727
37.07,138.706
37.08,138.686
37.09,138.667
37.1,138.649
37.11,138.631
37.12,138.614
37.13,138.598
37.14,138.582
37.15,138.567
37.16,138.553
37.17,138.539
37.18,138.525
37.19,138.512
37.2,138.5
37.21,138.488
37.22,138.476
37.23,138.465
37.24,138.454
37.25,138.444
37.26,138.434
37.27,138.424
37.28,138.415
37.29,138.406
37.3,138.397
37.31,138.388
37.32,138.38
37.33,138.372
37.34,138.364
37.35,138.357
37.36,138.35
37.37,138.343
37.38,138.336
37.39,138.329
37.4,138.323
37.41,138.316
37.42,138.31
37.43,138.304
37.44,138.299
37.45,138.293
37.46,138.288
37.47,138.282
37.48,138.277
37.49,138.272
37.5,138.267
37.51,138.263
37.52,138.258
37.53,138.253
37.54,138.249
37.55,138.245
37.56,138.241
37.57,138.237
37.58,138.233
37.59,138.229
37.6,138.225
37.61,138.221
37.62,138.218
37.63,138.214
37.64,138.211
37.65,138.208
37.66,138.204
37.67,138.201
37.68,138.198
37.69,138.195
37.7,138.192
37.71,138.189
37.72,138.186
37.73,138.184
37.74,138.181
37.75,138.178
37.76,138.176
37.77,138.173
37.78,138.171
37.79,138.168
37.8,138.166
37.81,138.163
37.82,138.161
37.83,138.159
37.84,138.157
37.85,138.155
37.86,138.153
37.87,138.15
37.88,138.148
37.89,138.146
37.9,138.145
37.91,138.143
37.92,138.141
37.93,138.139
37.94,138.137
37.95,138.135
37.96,138.134
37.97,138.132
37.98,138.13
37.99,138.129
37.999,138.127