File: boron_diamond/dubrovinskaia_2006/tc1.41/xrd/curve_total_fit.dat
36.5,143.8
36.52,144.119
36.54,144.448
36.56,144.79
36.58,145.143
36.6,145.51
36.62,145.889
36.64,146.283
36.66,146.692
36.68,147.116
36.7,147.556
36.72,148.013
36.74,148.489
36.76,148.983
36.78,149.497
36.8,150.033
36.82,150.59
36.84,151.171
36.86,151.777
36.88,152.409
36.9,153.068
36.92,153.757
36.94,154.477
36.96,155.23
36.98,156.018
37,156.843
37.02,157.708
37.04,158.615
37.06,159.566
37.08,160.565
37.1,161.616
37.12,162.72
37.14,163.883
37.16,165.109
37.18,166.401
37.2,167.765
37.22,169.206
37.24,170.73
37.26,172.344
37.28,174.054
37.3,175.867
37.32,177.794
37.34,179.842
37.36,182.022
37.38,184.346
37.4,186.827
37.42,189.477
37.44,192.313
37.46,195.352
37.48,198.614
37.5,202.12
37.52,205.894
37.54,209.965
37.56,214.361
37.58,219.119
37.6,224.277
37.62,229.879
37.64,235.977
37.66,242.627
37.68,249.895
37.7,257.856
37.72,266.595
37.74,276.211
37.76,286.817
37.78,298.543
37.8,311.538
37.82,325.976
37.84,342.055
37.86,360.002
37.88,380.08
37.9,402.585
37.92,427.854
37.94,456.26
37.96,488.212
37.98,524.14
38,564.479
38.02,609.624
38.04,659.874
38.06,715.331
38.08,775.768
38.1,840.444
38.12,907.898
38.14,975.755
38.16,1040.62
38.18,1098.19
38.2,1143.72
38.22,1172.76
38.24,1182.14
38.26,1170.79
38.28,1140.01
38.3,1093.13
38.32,1034.65
38.34,969.323
38.36,901.374
38.38,834.099
38.4,769.779
38.42,709.796
38.44,654.834
38.46,605.082
38.48,560.412
38.5,520.514
38.52,484.986
38.54,453.392
38.56,425.304
38.58,400.315
38.6,378.056
38.62,358.195
38.64,340.437
38.66,324.525
38.68,310.234
38.7,297.367
38.72,285.755
38.74,275.249
38.76,265.722
38.78,257.061
38.8,249.17
38.82,241.964
38.84,235.37
38.86,229.322
38.88,223.764
38.9,218.646
38.92,213.925
38.94,209.561
38.96,205.521
38.98,201.773
39,198.291
39.02,195.052
39.04,192.033
39.06,189.215
39.08,186.582
39.1,184.117
39.12,181.808
39.14,179.64
39.16,177.604
39.18,175.689
39.2,173.885
39.22,172.185
39.24,170.581
39.26,169.065
39.28,167.631
39.3,166.274
39.32,164.989
39.34,163.769
39.36,162.612
39.38,161.513
39.4,160.468
39.42,159.473
39.44,158.526
39.46,157.624
39.48,156.764
39.5,155.943
39.52,155.16
39.54,154.412
39.56,153.698
39.58,153.017
39.6,152.366
39.62,151.746
39.64,151.155
39.66,150.594
39.68,150.063
39.7,149.563
39.72,149.095
39.74,148.661
39.76,148.263
39.78,147.904
39.8,147.586
39.82,147.314
39.84,147.089
39.86,146.916
39.88,146.796
39.9,146.731
39.92,146.72
39.94,146.762
39.96,146.854
39.98,146.989
40,147.16
40.02,147.356
40.04,147.566
40.06,147.775
40.08,147.969
40.1,148.132
40.12,148.25
40.14,148.309
40.16,148.298
40.18,148.207
40.2,148.031
40.22,147.767
40.24,147.418
40.26,146.989
40.28,146.487
40.3,145.924
40.32,145.313
40.34,144.669
40.36,144.005
40.38,143.336
40.4,142.676
40.42,142.035
40.44,141.424
40.46,140.85
40.48,140.318
40.49,140.068