File: boron_diamond/dubrovinskaia_2006/tc1.41/xrd/curve_2_fit.dat
36.5,7.6357e-98
36.52,8.6923e-97
36.54,9.76553e-96
36.56,1.08276e-94
36.58,1.18479e-93
36.6,1.27947e-92
36.62,1.36361e-91
36.64,1.43425e-90
36.66,1.4888e-89
36.68,1.52518e-88
36.7,1.54199e-87
36.72,1.53856e-86
36.74,1.51504e-85
36.76,1.47235e-84
36.78,1.41211e-83
36.8,1.33661e-82
36.82,1.24857e-81
36.84,1.15106e-80
36.86,1.04727e-79
36.88,9.40352e-79
36.9,8.33296e-78
36.92,7.28757e-77
36.94,6.28987e-76
36.96,5.35766e-75
36.98,4.50384e-74
37,3.73651e-73
37.02,3.05932e-72
37.04,2.47205e-71
37.06,1.97136e-70
37.08,1.55149e-69
37.1,1.20505e-68
37.12,9.23715e-68
37.14,6.98787e-67
37.16,5.21708e-66
37.18,3.84401e-65
37.2,2.79522e-64
37.22,2.00596e-63
37.24,1.42071e-62
37.26,9.93027e-62
37.28,6.85003e-61
37.3,4.66336e-60
37.32,3.13314e-59
37.34,2.07747e-58
37.36,1.35946e-57
37.38,8.77955e-57
37.4,5.59568e-56
37.42,3.51972e-55
37.44,2.18494e-54
37.46,1.33858e-53
37.48,8.09327e-53
37.5,4.82924e-52
37.52,2.84386e-51
37.54,1.65277e-50
37.56,9.47966e-50
37.58,5.36596e-49
37.6,2.99762e-48
37.62,1.65265e-47
37.64,8.99207e-47
37.66,4.82852e-46
37.68,2.55884e-45
37.7,1.33828e-44
37.72,6.90756e-44
37.74,3.51867e-43
37.76,1.76891e-42
37.78,8.77626e-42
37.8,4.29722e-41
37.82,2.07654e-40
37.84,9.90303e-40
37.86,4.66091e-39
37.88,2.16495e-38
37.9,9.92432e-38
37.92,4.48981e-37
37.94,2.00461e-36
37.96,8.83298e-36
37.98,3.84113e-35
38,1.64849e-34
38.02,6.98212e-34
38.04,2.91853e-33
38.06,1.20397e-32
38.08,4.90164e-32
38.1,1.96944e-31
38.12,7.80941e-31
38.14,3.05611e-30
38.16,1.18031e-29
38.18,4.49879e-29
38.2,1.69227e-28
38.22,6.28234e-28
38.24,2.30169e-27
38.26,8.32236e-27
38.28,2.96976e-26
38.3,1.04585e-25
38.32,3.63493e-25
38.34,1.2468e-24
38.36,4.22056e-24
38.38,1.41e-23
38.4,4.64883e-23
38.42,1.51266e-22
38.44,4.85754e-22
38.46,1.53945e-21
38.48,4.81491e-21
38.5,1.48623e-20
38.52,4.52752e-20
38.54,1.36116e-19
38.56,4.03861e-19
38.58,1.18258e-18
38.6,3.41745e-18
38.62,9.74654e-18
38.64,2.7433e-17
38.66,7.62027e-17
38.68,2.08902e-16
38.7,5.65184e-16
38.72,1.50908e-15
38.74,3.97657e-15
38.76,1.03414e-14
38.78,2.65416e-14
38.8,6.72279e-14
38.82,1.68053e-13
38.84,4.14588e-13
38.86,1.0094e-12
38.88,2.42541e-12
38.9,5.75149e-12
38.92,1.34602e-11
38.94,3.10883e-11
38.96,7.08626e-11
38.98,1.59409e-10
39,3.53902e-10
39.02,7.75404e-10
39.04,1.67667e-09
39.06,3.57802e-09
39.08,7.53551e-09
39.1,1.56624e-08
39.12,3.21275e-08
39.14,6.50386e-08
39.16,1.29939e-07
39.18,2.56203e-07
39.2,4.98544e-07
39.22,9.57409e-07
39.24,1.81454e-06
39.26,3.39399e-06
39.28,6.26511e-06
39.3,1.14136e-05
39.32,2.05206e-05
39.34,3.64111e-05
39.36,6.37604e-05
39.38,0.00011019
39.4,0.000187937
39.42,0.00031634
39.44,0.000525499
39.46,0.000861518
39.48,0.0013939
39.5,0.00222573
39.52,0.00350744
39.54,0.00545484
39.56,0.00837238
39.58,0.0126821
39.6,0.0189586
39.62,0.0279704
39.64,0.0407253
39.66,0.0585201
39.68,0.0829891
39.7,0.116148
39.72,0.160427
39.74,0.218685
39.76,0.294194
39.78,0.390592
39.8,0.511787
39.82,0.661803
39.84,0.844586
39.86,1.06374
39.88,1.3222
39.9,1.62195
39.92,1.9636
39.94,2.34607
39.96,2.76634
39.98,3.21917
40,3.69708
40.02,4.19032
40.04,4.68717
40.06,5.17427
40.08,5.63719
40.1,6.06109
40.12,6.43152
40.14,6.73522
40.16,6.96089
40.18,7.0999
40.2,7.14685
40.22,7.0999
40.24,6.96089
40.26,6.73522
40.28,6.43152
40.3,6.06109
40.32,5.63719
40.34,5.17427
40.36,4.68717
40.38,4.19032
40.4,3.69708
40.42,3.21917
40.44,2.76634
40.46,2.34607
40.48,1.9636
40.49,1.78756