File: boron_diamond/dubrovinskaia_2006/tc1.41/xrd/curve_1_fit.dat
36.5,13.8
36.52,14.1186
36.54,14.4484
36.56,14.7898
36.58,15.1433
36.6,15.5097
36.62,15.8894
36.64,16.2832
36.66,16.6917
36.68,17.1157
36.7,17.5559
36.72,18.0133
36.74,18.4887
36.76,18.983
36.78,19.4972
36.8,20.0326
36.82,20.5901
36.84,21.1711
36.86,21.7768
36.88,22.4087
36.9,23.0683
36.92,23.7573
36.94,24.4773
36.96,25.2302
36.98,26.0182
37,26.8433
37.02,27.708
37.04,28.6147
37.06,29.5662
37.08,30.5654
37.1,31.6157
37.12,32.7204
37.14,33.8834
37.16,35.1088
37.18,36.4011
37.2,37.7651
37.22,39.2063
37.24,40.7304
37.26,42.3438
37.28,44.0536
37.3,45.8675
37.32,47.7938
37.34,49.8421
37.36,52.0225
37.38,54.3464
37.4,56.8266
37.42,59.4769
37.44,62.3131
37.46,65.3523
37.48,68.6141
37.5,72.12
37.52,75.8944
37.54,79.9646
37.56,84.3611
37.58,89.1188
37.6,94.2767
37.62,99.8793
37.64,105.977
37.66,112.627
37.68,119.895
37.7,127.856
37.72,136.595
37.74,146.211
37.76,156.817
37.78,168.543
37.8,181.538
37.82,195.976
37.84,212.055
37.86,230.002
37.88,250.08
37.9,272.585
37.92,297.854
37.94,326.26
37.96,358.212
37.98,394.14
38,434.479
38.02,479.624
38.04,529.874
38.06,585.331
38.08,645.768
38.1,710.444
38.12,777.898
38.14,845.755
38.16,910.619
38.18,968.195
38.2,1013.72
38.22,1042.76
38.24,1052.14
38.26,1040.79
38.28,1010.01
38.3,963.125
38.32,904.648
38.34,839.323
38.36,771.374
38.38,704.099
38.4,639.779
38.42,579.796
38.44,524.834
38.46,475.082
38.48,430.412
38.5,390.514
38.52,354.986
38.54,323.392
38.56,295.304
38.58,270.315
38.6,248.056
38.62,228.195
38.64,210.437
38.66,194.525
38.68,180.234
38.7,167.367
38.72,155.755
38.74,145.249
38.76,135.722
38.78,127.061
38.8,119.17
38.82,111.964
38.84,105.37
38.86,99.322
38.88,93.7641
38.9,88.6464
38.92,83.9249
38.94,79.5611
38.96,75.5205
38.98,71.773
39,68.2915
39.02,65.0519
39.04,62.0329
39.06,59.2153
39.08,56.5819
39.1,54.1173
39.12,51.8076
39.14,49.6403
39.16,47.6042
39.18,45.689
39.2,43.8855
39.22,42.1852
39.24,40.5806
39.26,39.0648
39.28,37.6312
39.3,36.2743
39.32,34.9886
39.34,33.7694
39.36,32.6122
39.38,31.5128
39.4,30.4676
39.42,29.473
39.44,28.5259
39.46,27.6234
39.48,26.7626
39.5,25.9412
39.52,25.1566
39.54,24.4069
39.56,23.6899
39.58,23.0039
39.6,22.347
39.62,21.7177
39.64,21.1144
39.66,20.5357
39.68,19.9804
39.7,19.4471
39.72,18.9348
39.74,18.4423
39.76,17.9687
39.78,17.513
39.8,17.0744
39.82,16.6519
39.84,16.2448
39.86,15.8524
39.88,15.474
39.9,15.1089
39.92,14.7565
39.94,14.4163
39.96,14.0876
39.98,13.77
40,13.463
40.02,13.1661
40.04,12.8788
40.06,12.6008
40.08,12.3317
40.1,12.0711
40.12,11.8187
40.14,11.574
40.16,11.3368
40.18,11.1069
40.2,10.8838
40.22,10.6673
40.24,10.4573
40.26,10.2533
40.28,10.0553
40.3,9.86288
40.32,9.67594
40.34,9.49425
40.36,9.31762
40.38,9.14586
40.4,8.97878
40.42,8.81624
40.44,8.65805
40.46,8.50407
40.48,8.35416
40.49,8.28068