File: boron_diamond/dubrovinskaia_2006/tc1.41/xrd/xrd.csv
36.7018, 172.37
36.8229, 161.826
36.944, 162.997
37.0651, 164.169
37.1862, 167.684
37.3074, 174.713
37.4285, 181.743
37.5496, 199.317
37.6707, 196.973
37.7853, 212.371
37.8736, 267.269
37.9129, 311.789
37.9497, 358.541
37.9705, 501.587
37.9786, 439.102
37.9886, 405.516
38.0038, 560.947
38.0189, 698.413
38.025, 647.801
38.0708, 731.218
38.0795, 890.554
38.0795, 810.886
38.0795, 782.768
38.0795, 848.377
38.1098, 987.796
38.1249, 930.388
38.1299, 1046.77
38.1602, 1115.5
38.2082, 1152.99
38.2914, 1024.12
38.2914, 1082.69
38.3141, 962.412
38.3217, 1053.01
38.3369, 928.826
38.3369, 890.554
38.352, 848.377
38.3974, 765.194
38.4004, 813.698
38.458, 678.496
38.458, 718.721
38.4883, 594.142
38.4883, 643.349
38.5185, 510.959
38.5185, 475.812
38.5185, 548.45
38.57, 422.856
38.5791, 373.883
38.6169, 322.724
38.6396, 290.701
38.6699, 249.695
38.7002, 213.376
38.791, 185.258
38.9122, 168.855
39.0333, 160.654
39.1544, 161.826
39.2755, 158.311
39.3966, 148.938
39.5177, 150.11
39.6389, 154.796
39.76, 153.625
39.8811, 145.423
40.0022, 145.423
40.1233, 148.938
40.2444, 146.595
40.3656, 145.423
40.4867, 141.909
40.6078, 137.222
40.6986, 126.678