File: mgb2/chen_2008/mg_0.98/xrd/curve_1_fit.dat
24.0,0.000263689
24.01,0.000268387
24.02,0.00027321
24.03,0.000278164
24.04,0.000283253
24.05,0.000288482
24.06,0.000293857
24.07,0.000299383
24.08,0.000305065
24.09,0.00031091
24.1,0.000316923
24.11,0.000323111
24.12,0.000329482
24.13,0.000336041
24.14,0.000342798
24.15,0.000349759
24.16,0.000356933
24.17,0.000364328
24.18,0.000371954
24.19,0.000379821
24.2,0.000387938
24.21,0.000396316
24.22,0.000404967
24.23,0.000413902
24.24,0.000423134
24.25,0.000432676
24.26,0.000442542
24.27,0.000452747
24.28,0.000463306
24.29,0.000474235
24.3,0.000485553
24.31,0.000497277
24.32,0.000509427
24.33,0.000522024
24.34,0.000535089
24.35,0.000548647
24.36,0.000562721
24.37,0.000577338
24.38,0.000592526
24.39,0.000608315
24.4,0.000624737
24.41,0.000641825
24.42,0.000659616
24.43,0.000678148
24.44,0.000697463
24.45,0.000717604
24.46,0.000738619
24.47,0.000760557
24.48,0.000783475
24.49,0.000807429
24.5,0.000832482
24.51,0.000858702
24.52,0.00088616
24.53,0.000914935
24.54,0.000945111
24.55,0.000976778
24.56,0.00101003
24.57,0.00104499
24.58,0.00108175
24.59,0.00112045
24.6,0.00116121
24.61,0.0012042
24.62,0.00124956
24.63,0.00129747
24.64,0.00134812
24.65,0.00140172
24.66,0.00145849
24.67,0.00151868
24.68,0.00158257
24.69,0.00165045
24.7,0.00172265
24.71,0.00179953
24.72,0.00188149
24.73,0.00196897
24.74,0.00206245
24.75,0.00216246
24.76,0.00226961
24.77,0.00238454
24.78,0.002508
24.79,0.00264079
24.8,0.00278382
24.81,0.00293809
24.82,0.00310473
24.83,0.00328499
24.84,0.00348025
24.85,0.00369209
24.86,0.00392223
24.87,0.00417261
24.88,0.00444536
24.89,0.00474286
24.9,0.00506775
24.91,0.00542289
24.92,0.00581144
24.93,0.00623677
24.94,0.0067025
24.95,0.00721236
24.96,0.00777017
24.97,0.00837958
24.98,0.00904388
24.99,0.0097656
25,0.010546
25.01,0.0113846
25.02,0.0122778
25.03,0.0132184
25.04,0.0141946
25.05,0.0151881
25.06,0.0161743
25.07,0.0171217
25.08,0.0179925
25.09,0.0187456
25.1,0.0193399
25.11,0.0197389
25.12,0.0199163
25.13,0.0198599
25.14,0.0195736
25.15,0.0190769
25.16,0.0184014
25.17,0.0175865
25.18,0.0166739
25.19,0.0157036
25.2,0.0147103
25.21,0.0137225
25.22,0.0127615
25.23,0.0118424
25.24,0.0109749
25.25,0.010164
25.26,0.00941181
25.27,0.0087179
25.28,0.00808033
25.29,0.00749614
25.3,0.00696182
25.31,0.00647362
25.32,0.00602775
25.33,0.00562051
25.34,0.00524841
25.35,0.00490817
25.36,0.00459678
25.37,0.00431147
25.38,0.00404974
25.39,0.00380934
25.4,0.00358821
25.41,0.00338454
25.42,0.00319666
25.43,0.0030231
25.44,0.00286255
25.45,0.00271381
25.46,0.00257582
25.47,0.00244761
25.48,0.00232835
25.49,0.00221724
25.5,0.00211359
25.51,0.00201679
25.52,0.00192625
25.53,0.00184148
25.54,0.00176201
25.55,0.00168743
25.56,0.00161734
25.57,0.00155142
25.58,0.00148934
25.59,0.00143082
25.6,0.0013756
25.61,0.00132345
25.62,0.00127413
25.63,0.00122747
25.64,0.00118327
25.65,0.00114137
25.66,0.00110162
25.67,0.00106386
25.68,0.00102799
25.69,0.000993862
25.7,0.000961382
25.71,0.000930442
25.72,0.00090095
25.73,0.000872818
25.74,0.000845963
25.75,0.000820312
25.76,0.000795795
25.77,0.000772346
25.78,0.000749906
25.79,0.000728417
25.8,0.000707828
25.81,0.000688089
25.82,0.000669156
25.83,0.000650985
25.84,0.000633536
25.85,0.000616772
25.86,0.000600658
25.87,0.000585161
25.88,0.000570251
25.89,0.000555897
25.9,0.000542075
25.91,0.000528756
25.92,0.000515919
25.93,0.000503539
25.94,0.000491596
25.95,0.00048007
25.96,0.000468941
25.97,0.000458191
25.98,0.000447804
25.99,0.000437764
26,0.000428056
26.01,0.000418664
26.02,0.000409576
26.03,0.000400779
26.04,0.000392261
26.05,0.000384009
26.06,0.000376013
26.07,0.000368263
26.08,0.000360749
26.09,0.000353461
26.1,0.000346391
26.11,0.000339529
26.12,0.000332868
26.13,0.0003264
26.14,0.000320118
26.15,0.000314014
26.16,0.000308083
26.17,0.000302317
26.18,0.000296711
26.19,0.000291258
26.2,0.000285954
26.21,0.000280792
26.22,0.000275769
26.23,0.000270878
26.24,0.000266116
26.25,0.000261478
26.26,0.000256959
26.27,0.000252556
26.28,0.000248265
26.29,0.000244082
26.3,0.000240003
26.31,0.000236025
26.32,0.000232145
26.33,0.00022836
26.34,0.000224665
26.35,0.00022106
26.36,0.00021754
26.37,0.000214104
26.38,0.000210748
26.39,0.00020747
26.4,0.000204267
26.41,0.000201138
26.42,0.00019808
26.43,0.000195091
26.44,0.000192169
26.45,0.000189312
26.46,0.000186518
26.47,0.000183785
26.48,0.000181112
26.49,0.000178496
26.5,0.000175936
26.51,0.000173431
26.52,0.000170979
26.53,0.000168579
26.54,0.000166228
26.55,0.000163926
26.56,0.000161672
26.57,0.000159463
26.58,0.0001573
26.59,0.00015518
26.6,0.000153102
26.61,0.000151066
26.62,0.00014907
26.63,0.000147113
26.64,0.000145195
26.65,0.000143314
26.66,0.000141468
26.67,0.000139659
26.68,0.000137883
26.69,0.000136141
26.7,0.000134432
26.71,0.000132755
26.72,0.000131109
26.73,0.000129494
26.74,0.000127907
26.75,0.00012635
26.76,0.000124821
26.77,0.00012332
26.78,0.000121845
26.79,0.000120397
26.8,0.000118974
26.81,0.000117577
26.82,0.000116203
26.83,0.000114854
26.84,0.000113528
26.85,0.000112225
26.86,0.000110944
26.87,0.000109685
26.88,0.000108447
26.89,0.00010723
26.9,0.000106033
26.91,0.000104856
26.92,0.000103698
26.93,0.00010256
26.94,0.00010144
26.95,0.000100339
26.96,9.92548e-05
26.97,9.81885e-05
26.98,9.71392e-05
26.99,9.61066e-05