File: mgb2/chen_2008/mg_0.98/xrd/curve_total_fit.dat
24.0,0.204984
24.01,0.204988
24.02,0.204993
24.03,0.204998
24.04,0.205003
24.05,0.205008
24.06,0.205014
24.07,0.205019
24.08,0.205025
24.09,0.205031
24.1,0.205037
24.11,0.205043
24.12,0.205049
24.13,0.205056
24.14,0.205063
24.15,0.20507
24.16,0.205077
24.17,0.205084
24.18,0.205092
24.19,0.2051
24.2,0.205108
24.21,0.205116
24.22,0.205125
24.23,0.205134
24.24,0.205143
24.25,0.205153
24.26,0.205163
24.27,0.205173
24.28,0.205183
24.29,0.205194
24.3,0.205206
24.31,0.205217
24.32,0.205229
24.33,0.205242
24.34,0.205255
24.35,0.205269
24.36,0.205283
24.37,0.205297
24.38,0.205313
24.39,0.205328
24.4,0.205345
24.41,0.205362
24.42,0.20538
24.43,0.205398
24.44,0.205417
24.45,0.205438
24.46,0.205459
24.47,0.205481
24.48,0.205503
24.49,0.205527
24.5,0.205552
24.51,0.205579
24.52,0.205606
24.53,0.205635
24.54,0.205665
24.55,0.205697
24.56,0.20573
24.57,0.205765
24.58,0.205802
24.59,0.20584
24.6,0.205881
24.61,0.205924
24.62,0.20597
24.63,0.206017
24.64,0.206068
24.65,0.206122
24.66,0.206178
24.67,0.206239
24.68,0.206303
24.69,0.20637
24.7,0.206443
24.71,0.20652
24.72,0.206601
24.73,0.206689
24.74,0.206782
24.75,0.206882
24.76,0.20699
24.77,0.207105
24.78,0.207228
24.79,0.207361
24.8,0.207504
24.81,0.207658
24.82,0.207825
24.83,0.208005
24.84,0.2082
24.85,0.208412
24.86,0.208642
24.87,0.208893
24.88,0.209165
24.89,0.209463
24.9,0.209788
24.91,0.210143
24.92,0.210531
24.93,0.210957
24.94,0.211422
24.95,0.211932
24.96,0.21249
24.97,0.2131
24.98,0.213764
24.99,0.214486
25,0.215266
25.01,0.216105
25.02,0.216998
25.03,0.217938
25.04,0.218915
25.05,0.219908
25.06,0.220894
25.07,0.221842
25.08,0.222712
25.09,0.223466
25.1,0.22406
25.11,0.224459
25.12,0.224636
25.13,0.22458
25.14,0.224294
25.15,0.223797
25.16,0.223121
25.17,0.222306
25.18,0.221394
25.19,0.220424
25.2,0.21943
25.21,0.218442
25.22,0.217482
25.23,0.216562
25.24,0.215695
25.25,0.214884
25.26,0.214132
25.27,0.213438
25.28,0.2128
25.29,0.212216
25.3,0.211682
25.31,0.211194
25.32,0.210748
25.33,0.210341
25.34,0.209968
25.35,0.209628
25.36,0.209317
25.37,0.209031
25.38,0.20877
25.39,0.208529
25.4,0.208308
25.41,0.208105
25.42,0.207917
25.43,0.207743
25.44,0.207583
25.45,0.207434
25.46,0.207296
25.47,0.207168
25.48,0.207048
25.49,0.206937
25.5,0.206834
25.51,0.206737
25.52,0.206646
25.53,0.206561
25.54,0.206482
25.55,0.206407
25.56,0.206337
25.57,0.206271
25.58,0.206209
25.59,0.206151
25.6,0.206096
25.61,0.206043
25.62,0.205994
25.63,0.205947
25.64,0.205903
25.65,0.205861
25.66,0.205822
25.67,0.205784
25.68,0.205748
25.69,0.205714
25.7,0.205681
25.71,0.20565
25.72,0.205621
25.73,0.205593
25.74,0.205566
25.75,0.20554
25.76,0.205516
25.77,0.205492
25.78,0.20547
25.79,0.205448
25.8,0.205428
25.81,0.205408
25.82,0.205389
25.83,0.205371
25.84,0.205354
25.85,0.205337
25.86,0.205321
25.87,0.205305
25.88,0.20529
25.89,0.205276
25.9,0.205262
25.91,0.205249
25.92,0.205236
25.93,0.205224
25.94,0.205212
25.95,0.2052
25.96,0.205189
25.97,0.205178
25.98,0.205168
25.99,0.205158
26,0.205148
26.01,0.205139
26.02,0.20513
26.03,0.205121
26.04,0.205112
26.05,0.205104
26.06,0.205096
26.07,0.205088
26.08,0.205081
26.09,0.205073
26.1,0.205066
26.11,0.20506
26.12,0.205053
26.13,0.205046
26.14,0.20504
26.15,0.205034
26.16,0.205028
26.17,0.205022
26.18,0.205017
26.19,0.205011
26.2,0.205006
26.21,0.205001
26.22,0.204996
26.23,0.204991
26.24,0.204986
26.25,0.204981
26.26,0.204977
26.27,0.204973
26.28,0.204968
26.29,0.204964
26.3,0.20496
26.31,0.204956
26.32,0.204952
26.33,0.204948
26.34,0.204945
26.35,0.204941
26.36,0.204938
26.37,0.204934
26.38,0.204931
26.39,0.204927
26.4,0.204924
26.41,0.204921
26.42,0.204918
26.43,0.204915
26.44,0.204912
26.45,0.204909
26.46,0.204907
26.47,0.204904
26.48,0.204901
26.49,0.204898
26.5,0.204896
26.51,0.204893
26.52,0.204891
26.53,0.204889
26.54,0.204886
26.55,0.204884
26.56,0.204882
26.57,0.204879
26.58,0.204877
26.59,0.204875
26.6,0.204873
26.61,0.204871
26.62,0.204869
26.63,0.204867
26.64,0.204865
26.65,0.204863
26.66,0.204861
26.67,0.20486
26.68,0.204858
26.69,0.204856
26.7,0.204854
26.71,0.204853
26.72,0.204851
26.73,0.204849
26.74,0.204848
26.75,0.204846
26.76,0.204845
26.77,0.204843
26.78,0.204842
26.79,0.20484
26.8,0.204839
26.81,0.204838
26.82,0.204836
26.83,0.204835
26.84,0.204834
26.85,0.204832
26.86,0.204831
26.87,0.20483
26.88,0.204828
26.89,0.204827
26.9,0.204826
26.91,0.204825
26.92,0.204824
26.93,0.204823
26.94,0.204821
26.95,0.20482
26.96,0.204819
26.97,0.204818
26.98,0.204817
26.99,0.204816